,EEG.Fp1,EEG.Fz,EEG.F3,EEG.F7,EEG.FT9,EEG.FC5,EEG.FC1,EEG.C3,EEG.T7,EEG.TP9,EEG.CP5,EEG.CP1,EEG.Pz,EEG.P3,EEG.P7,EEG.O1,EEG.Oz,EEG.O2,EEG.P4,EEG.P8,EEG.TP10,EEG.CP6,EEG.CP2,EEG.C4,EEG.T8,EEG.FT10,EEG.FC6,EEG.FC2,EEG.F4,EEG.F8,EEG.Fp2,EEG.AF7,EEG.AF3,EEG.AFz,EEG.F1,EEG.F5,EEG.FT7,EEG.FC3,EEG.C1,EEG.C5,EEG.TP7,EEG.CP3,EEG.P1,EEG.P5,EEG.PO7,EEG.PO3,EEG.POz,EEG.PO4,EEG.PO8,EEG.P6,EEG.P2,EEG.CPz,EEG.CP4,EEG.TP8,EEG.C6,EEG.C2,EEG.FC4,EEG.FT8,EEG.F6,EEG.AF8,EEG.AF4,EEG.F2,EEG.FCz,number
0,0.010152881,0.0047388007,0.0050086887,0.009586721,0.0029658356,0.0061239004,0.0033567506,0.010375624,0.0074203233,0.01452799,0.0066777547,0.0014503645,0.0064446595,0.0050722957,0.020831784,0.00451761,0.005996965,0.009334738,0.0064936453,0.029476358,0.035508227,0.012026303,0.0046391673,0.0047358973,0.010358296,0.002457618,0.001537393,0.00080834527,0.0024265416,0.0026468441,0.008183904,0.009947647,0.009384107,0.008612514,0.0034368932,0.012171153,0.0060436837,0.0062114745,0.0042514238,0.02904032,0.013311379,0.00549318,0.0030714492,0.017096851,0.009727915,0.011154019,0.005629072,0.010093008,0.034388267,0.015413265,0.0073801144,0.0031488556,0.008584887,0.019413091,0.042301215,0.0029038284,0.0,0.0,0.0,0.0,0.0,0.0,0.0,0
1,0.01572822,0.008797913,0.0043169,0.011407312,0.0043660095,0.00782843,0.0038393554,0.017086029,0.005630541,0.019348754,0.0063438844,0.0021239275,0.011026116,0.006817275,0.027070316,0.008285336,0.0049044173,0.00681546,0.019426238,0.030806927,0.049814522,0.02705417,0.006133182,0.005269039,0.011895223,0.0034214717,0.0022923718,0.001509812,0.0037093575,0.0028186429,0.009547962,0.009506886,0.008284455,0.011610369,0.0058180294,0.013836209,0.008101911,0.010528389,0.0058813826,0.02685655,0.01702051,0.01976247,0.004238087,0.022869656,0.013577793,0.010847861,0.006224314,0.012797682,0.03138463,0.022931216,0.00907656,0.006770504,0.014097054,0.031731,0.0707375,0.0024485637,0.0,0.0,0.0,0.0,0.0,0.0,0.0,0
2,0.027149031,0.00991255,0.0060898727,0.012125019,0.0047471724,0.0075351316,0.003627906,0.014646861,0.008821718,0.020626891,0.011110081,0.0023737582,0.010179711,0.007803778,0.0199051,0.0109467795,0.00821219,0.01595079,0.013443214,0.022572072,0.08354652,0.014409383,0.0062414007,0.004760175,0.01072515,0.002555253,0.0017770162,0.0012165302,0.0033216092,0.0024671222,0.014631674,0.011840817,0.009301681,0.00937729,0.0077727344,0.019590544,0.0066098203,0.013280658,0.008112579,0.04954703,0.022942321,0.0145929465,0.00463062,0.02106863,0.015598251,0.011287604,0.008451881,0.014794146,0.0406253,0.022027561,0.008308718,0.0054048137,0.017655378,0.020575149,0.059031736,0.0023575881,0.0,0.0,0.0,0.0,0.0,0.0,0.0,0
3,0.03489617,0.008645052,0.008099751,0.011645691,0.0058792774,0.009293203,0.0049748737,0.014783475,0.016606921,0.02433339,0.0103172595,0.0022918675,0.011012735,0.00956979,0.03303066,0.009643539,0.0116351135,0.018982857,0.010373285,0.026204782,0.057777263,0.03793512,0.006813406,0.006366192,0.017090794,0.003679633,0.0016912713,0.0009987435,0.0037117465,0.0038725734,0.015771888,0.016888458,0.010607834,0.009987878,0.0046301303,0.017322635,0.00921706,0.016361322,0.008109742,0.058373086,0.02986672,0.01875363,0.00412802,0.0196925,0.01767853,0.009591307,0.015620562,0.018572804,0.039814398,0.02924814,0.010950406,0.006655387,0.01807575,0.032822978,0.077400014,0.0031400858,0.0,0.0,0.0,0.0,0.0,0.0,0.0,0
4,0.034518644,0.008739198,0.009506743,0.013851699,0.003842315,0.01187478,0.006082517,0.010850544,0.010955031,0.036350757,0.013038676,0.003950983,0.011679174,0.016319258,0.029909048,0.013112821,0.008315825,0.021218974,0.017522616,0.024450308,0.067804754,0.021861974,0.007671127,0.0066103875,0.01779524,0.00384239,0.0027178593,0.001575522,0.003478697,0.0048644594,0.014973251,0.018950135,0.010251933,0.008929323,0.005417527,0.014821987,0.010790085,0.017868778,0.0057036993,0.042917963,0.022186361,0.0155195175,0.004242823,0.03347444,0.014389345,0.013515637,0.016223617,0.020634817,0.05881879,0.035183795,0.010704255,0.005686723,0.012910405,0.031764895,0.07143234,0.0036852183,0.0,0.0,0.0,0.0,0.0,0.0,0.0,0
5,0.048868924,0.00883935,0.019135563,0.019118216,0.0035981843,0.01567216,0.007237062,0.019473266,0.014307255,0.043073684,0.023643648,0.003785863,0.018695524,0.01469605,0.039282754,0.01622956,0.008273717,0.021560052,0.02522458,0.03570822,0.056494277,0.021118814,0.008018502,0.007819401,0.02232323,0.004855787,0.0031747296,0.0016326399,0.0056162803,0.0070266137,0.021076595,0.019140294,0.011770844,0.009835686,0.006264469,0.014595098,0.009141218,0.013396721,0.0063344133,0.053323284,0.023129342,0.027693378,0.005524915,0.026316114,0.012717059,0.01140383,0.016827377,0.029034644,0.03605387,0.035584815,0.01912172,0.0037118355,0.009700943,0.029082399,0.06860951,0.0048918594,0.0,0.0,0.0,0.0,0.0,0.0,0.0,0
6,0.035416327,0.009286614,0.020029765,0.016860148,0.004854422,0.017140107,0.0061807004,0.023717731,0.017164508,0.044837825,0.017615678,0.0035033443,0.01979334,0.017525915,0.035802796,0.012455698,0.009615402,0.019760136,0.029942457,0.03643212,0.09800115,0.032980204,0.01057787,0.007196991,0.02671024,0.006724133,0.0023982518,0.001816189,0.004571398,0.0065706614,0.016832171,0.02419894,0.013936556,0.010273824,0.0072438386,0.010573248,0.009401422,0.01188448,0.0054636733,0.06546638,0.025322085,0.025502082,0.0052451394,0.030465994,0.01860239,0.010614922,0.020313207,0.023432784,0.07101479,0.03914097,0.01934082,0.008052509,0.012639589,0.03008685,0.06731923,0.0045772344,0.0,0.0,0.0,0.0,0.0,0.0,0.0,0
7,0.035186104,0.008514935,0.02016854,0.018374013,0.0038898208,0.016276112,0.004987841,0.021316677,0.017521342,0.056146655,0.019470775,0.0035076318,0.019200202,0.026012823,0.03431812,0.016141048,0.010575716,0.024140662,0.04329018,0.032715946,0.08597751,0.032978117,0.0069258474,0.008495425,0.029548218,0.0066521387,0.003768449,0.0015167922,0.0045087514,0.009041627,0.014697828,0.024754642,0.014744952,0.009919638,0.007235595,0.015633296,0.011621807,0.015195235,0.008509067,0.06853512,0.029683808,0.02139006,0.0047834152,0.03132977,0.020874968,0.011075943,0.01720548,0.026228327,0.08811016,0.026573267,0.022650205,0.0044707246,0.013033421,0.02985222,0.063547865,0.0032564127,0.0,0.0,0.0,0.0,0.0,0.0,0.0,0
8,0.037033863,0.006854112,0.022444138,0.014559688,0.005840305,0.016586827,0.0056722425,0.024455082,0.017998189,0.06489905,0.026875302,0.0027873574,0.013966069,0.02539896,0.035735086,0.014548361,0.014917616,0.026837388,0.022456918,0.03771016,0.074297786,0.04122506,0.011989886,0.013613983,0.033857264,0.006400943,0.0033971218,0.0024056002,0.0041474667,0.011139653,0.021078635,0.027862797,0.009040188,0.014136856,0.0048759114,0.016139377,0.010621028,0.0152078485,0.004973979,0.067754775,0.031751916,0.029104913,0.0045947284,0.029746894,0.0210432,0.008570382,0.016679281,0.02586222,0.06322584,0.037107896,0.021921745,0.005728894,0.014609273,0.045156468,0.05698345,0.0047895797,0.0,0.0,0.0,0.0,0.0,0.0,0.0,0
9,0.03770395,0.006472549,0.018333253,0.018369367,0.006738677,0.013993653,0.006244981,0.025485493,0.016796222,0.059738986,0.029921286,0.0025748645,0.019286776,0.023345765,0.043426123,0.01778515,0.011903811,0.031783074,0.025693635,0.040823277,0.111030236,0.039503895,0.011843652,0.0068348427,0.031910215,0.0057895607,0.0026179347,0.002019673,0.003571092,0.0071407086,0.019642346,0.027397925,0.014122857,0.017906826,0.009078528,0.020007158,0.011622188,0.018791828,0.009379414,0.083805576,0.036254436,0.023318615,0.0058472687,0.027987568,0.026472235,0.011995286,0.02109718,0.02449162,0.039029468,0.03999913,0.013725659,0.006756277,0.013894237,0.05405837,0.07474671,0.004760252,0.0,0.0,0.0,0.0,0.0,0.0,0.0,0
10,0.04475494,0.003979,0.02413332,0.013129683,0.008927877,0.01947716,0.0046542007,0.02439072,0.01927533,0.10044174,0.039969493,0.0036375646,0.019634448,0.031842794,0.046451923,0.023529802,0.017218273,0.02836897,0.03732642,0.032701507,0.09213309,0.044582702,0.010069658,0.012916018,0.039571833,0.005267653,0.0033773591,0.0024391268,0.006371559,0.008040007,0.018667081,0.027282497,0.016048597,0.024571812,0.0078481175,0.018624784,0.013883175,0.017870238,0.008927013,0.08484955,0.02908174,0.021348614,0.005614191,0.036975916,0.032526188,0.012813342,0.015745947,0.025252767,0.040259562,0.061536524,0.020757642,0.007425992,0.014398555,0.046449583,0.124885134,0.0064895605,0.0,0.0,0.0,0.0,0.0,0.0,0.0,0
11,0.047501013,0.003780758,0.023703266,0.010155932,0.0055876253,0.020478493,0.0038761653,0.019104525,0.016931811,0.09401511,0.041404784,0.004191865,0.02083247,0.028884478,0.042379115,0.029845059,0.017160915,0.02784853,0.03367594,0.037990343,0.08402281,0.05271765,0.012987724,0.011844678,0.05740681,0.010325013,0.0029324088,0.0025927788,0.006836299,0.009061388,0.01748951,0.03396196,0.014755879,0.015921311,0.009753942,0.027473899,0.013505506,0.02074237,0.009670305,0.07232917,0.026580712,0.020199165,0.0049245516,0.05246397,0.025273876,0.012827734,0.015171096,0.02481258,0.04767826,0.058745544,0.018325519,0.0076598944,0.014282826,0.03135241,0.063066185,0.005453858,0.0,0.0,0.0,0.0,0.0,0.0,0.0,0
12,0.063901395,0.004364044,0.030702809,0.010397548,0.006799202,0.017759738,0.0045067454,0.018344805,0.01417818,0.08483273,0.042008024,0.00504659,0.029983053,0.028628046,0.03419441,0.030336753,0.019703524,0.03662912,0.04669663,0.034020446,0.09134194,0.04736803,0.007055517,0.009140684,0.048451055,0.0097977,0.00491776,0.002900654,0.005710351,0.010911355,0.020815425,0.039650854,0.010836782,0.018461715,0.009468608,0.028250199,0.015651988,0.0217181,0.011983608,0.07350283,0.024390774,0.018865196,0.0069070305,0.052126557,0.03296043,0.013364604,0.018410822,0.021424808,0.04569966,0.07113585,0.025781339,0.0066518625,0.010379442,0.03007455,0.070316225,0.010494507,0.0,0.0,0.0,0.0,0.0,0.0,0.0,0
13,0.047372017,0.005007978,0.028338809,0.012376024,0.006286916,0.015770102,0.0035453981,0.024729284,0.014841889,0.119623184,0.044311345,0.005543098,0.026156189,0.03491471,0.04707486,0.036040694,0.026994456,0.030357437,0.034921575,0.043613613,0.090130925,0.047145184,0.007492561,0.010733235,0.04218308,0.010761499,0.0035941985,0.004357774,0.0051505747,0.012723102,0.027593574,0.04751919,0.009524513,0.012289209,0.007311494,0.017329281,0.014248433,0.020981979,0.010188286,0.06861405,0.02974366,0.021393916,0.0048682704,0.055894822,0.038551733,0.014317253,0.024408462,0.02465505,0.040364563,0.07037172,0.020612061,0.0058800476,0.013599157,0.028159317,0.08964639,0.010563383,0.0,0.0,0.0,0.0,0.0,0.0,0.0,0
14,0.053128496,0.0050827265,0.033167418,0.011975811,0.0065242657,0.021785012,0.0036031061,0.025434008,0.016433826,0.153338,0.035826292,0.0064332453,0.027234089,0.02609913,0.031427033,0.035143387,0.024488533,0.025271099,0.042197715,0.037723165,0.08202139,0.046710394,0.011380374,0.0096669,0.049545087,0.010017622,0.004994091,0.0043243812,0.0066957357,0.011023087,0.027947579,0.047485005,0.017280424,0.011087097,0.007064547,0.020279419,0.015913958,0.02407063,0.011676819,0.055894233,0.029699331,0.024256293,0.003730247,0.07031267,0.043059226,0.02306835,0.024384964,0.027572019,0.038448244,0.053157408,0.027717026,0.00552857,0.016522933,0.03742781,0.08111854,0.008342757,0.0,0.0,0.0,0.0,0.0,0.0,0.0,0
15,0.06250066,0.004197898,0.033903178,0.011618008,0.007448852,0.02043026,0.0031879698,0.02006101,0.013358383,0.1075737,0.044352096,0.0056742476,0.017815279,0.037496045,0.032015365,0.041233867,0.02053084,0.030607663,0.03678964,0.033179123,0.07940875,0.05107325,0.012761762,0.010361451,0.06233718,0.011302028,0.0042509492,0.0034521844,0.0053540193,0.008527937,0.035365116,0.048534736,0.01645035,0.0121505,0.0073231705,0.021324417,0.01877648,0.016163206,0.009715862,0.06782318,0.03367839,0.018830175,0.0060186866,0.04804581,0.035534084,0.019477217,0.028861502,0.035737336,0.038168866,0.07409698,0.014959904,0.005595089,0.013866158,0.03196727,0.105918884,0.0071086227,0.0,0.0,0.0,0.0,0.0,0.0,0.0,0
16,0.07233573,0.0045184493,0.03722241,0.012717958,0.010663716,0.017409129,0.004792608,0.017781828,0.014552096,0.0942741,0.04426715,0.0060635987,0.03184185,0.046506837,0.046860307,0.029448828,0.023370069,0.020849878,0.03331673,0.02925918,0.06416184,0.045484766,0.008296799,0.011362749,0.05867442,0.010202197,0.003928206,0.004964603,0.0066716224,0.0080216685,0.04057242,0.047546905,0.01219256,0.013794032,0.006387906,0.020964595,0.020096105,0.017303426,0.011089279,0.055145618,0.027724842,0.0152688455,0.0064304494,0.03872043,0.029364606,0.013938806,0.022158273,0.038388938,0.025106769,0.051649507,0.01935244,0.009924687,0.01234032,0.036000427,0.08776039,0.006845838,0.0,0.0,0.0,0.0,0.0,0.0,0.0,0
17,0.081829175,0.005147805,0.038791403,0.012465389,0.010495879,0.01754684,0.0037844318,0.015522597,0.011959531,0.14024374,0.043982163,0.0074969674,0.016343199,0.04034158,0.035010464,0.034238856,0.021635145,0.020756884,0.034651726,0.033174887,0.08989465,0.038873613,0.008957456,0.011423975,0.06390212,0.009423543,0.0042267004,0.004199729,0.006617117,0.010570172,0.040925387,0.04681287,0.014487164,0.012407885,0.007084393,0.024408214,0.02043874,0.020303547,0.011689356,0.058503415,0.031832978,0.019339038,0.012245544,0.041160382,0.034138795,0.019047663,0.025831735,0.02912646,0.036104545,0.059973054,0.020409545,0.004571866,0.01431884,0.03432766,0.058978286,0.0064673144,0.0,0.0,0.0,0.0,0.0,0.0,0.0,0
18,0.08059809,0.008537616,0.03158548,0.017888086,0.01057128,0.01370753,0.0044188225,0.014082251,0.015285785,0.091749765,0.048021495,0.0066848495,0.018801197,0.046424247,0.031703357,0.046126142,0.028164051,0.02438408,0.040020425,0.032069836,0.06272183,0.028196245,0.0071335384,0.010475146,0.07163325,0.007323585,0.005891575,0.005195725,0.007694536,0.008283405,0.035342433,0.038380094,0.010733111,0.014557899,0.010802575,0.021826494,0.017484441,0.029692225,0.010088788,0.06637143,0.035820358,0.022761762,0.010315775,0.029859366,0.02270012,0.01609423,0.014003496,0.026414793,0.053617574,0.05799499,0.01879653,0.005767192,0.013626578,0.03503984,0.074300446,0.008387533,0.0,0.0,0.0,0.0,0.0,0.0,0.0,0
19,0.08163055,0.007899609,0.030624177,0.016557062,0.0108868275,0.010120018,0.00458379,0.013726795,0.012259699,0.09343593,0.037272967,0.0061789253,0.020805664,0.055064976,0.02507854,0.03877482,0.021998497,0.019480668,0.034209102,0.022773948,0.06609678,0.031123053,0.0046561738,0.008358692,0.07525209,0.006620459,0.0053383745,0.0034147077,0.0074023358,0.011508729,0.030508567,0.035869565,0.011473741,0.02502018,0.007473281,0.018014867,0.016581366,0.02121383,0.009929953,0.06130062,0.033470318,0.015290656,0.009874278,0.02542948,0.023699146,0.01433718,0.014637955,0.014622802,0.04730243,0.03808625,0.014281929,0.0097531155,0.010878987,0.03425542,0.06362583,0.0070571275,0.0,0.0,0.0,0.0,0.0,0.0,0.0,0
20,0.09588761,0.0054233656,0.029744657,0.010186544,0.01032131,0.014045765,0.004648194,0.010144804,0.011382634,0.080218054,0.030641614,0.008987064,0.01579877,0.05454894,0.028442321,0.044152237,0.019176982,0.0165818,0.02532419,0.024444548,0.06538793,0.03398609,0.0056554866,0.008433321,0.075703755,0.00676151,0.0055697896,0.003944462,0.006183462,0.011292756,0.03448352,0.034513395,0.010250312,0.021437531,0.0072848434,0.01714192,0.01809227,0.025576359,0.010078119,0.05184478,0.028913924,0.019190036,0.008907815,0.021925692,0.017672496,0.018065842,0.013031888,0.014247772,0.044984933,0.044002965,0.00973218,0.009632148,0.0074241534,0.029660987,0.06843266,0.006106024,0.0,0.0,0.0,0.0,0.0,0.0,0.0,0
21,0.09002694,0.0061835437,0.022398679,0.013824261,0.012070295,0.01132152,0.005190967,0.009778118,0.012783747,0.11594378,0.04218531,0.008773996,0.013189384,0.043617062,0.023962943,0.03543087,0.027610831,0.01434289,0.020286916,0.016019026,0.06060879,0.02187566,0.0042630895,0.007787928,0.057251014,0.0066439547,0.006153809,0.004265603,0.00872577,0.009779815,0.026931288,0.028172024,0.011512572,0.027892817,0.00976486,0.019692503,0.014291436,0.01710901,0.014326329,0.05467658,0.028318146,0.016577842,0.007427649,0.039851785,0.013145772,0.014373037,0.011333161,0.014533534,0.050181914,0.027932907,0.008677564,0.0050198613,0.009707748,0.038356315,0.06590128,0.0043220576,0.0,0.0,0.0,0.0,0.0,0.0,0.0,0
22,0.0764027,0.008751521,0.021609485,0.011237941,0.015858617,0.012099272,0.004299189,0.0073039774,0.016166957,0.1001199,0.031094722,0.0069437837,0.01052153,0.044061743,0.030553719,0.03226224,0.020951169,0.019934773,0.017441517,0.021092582,0.056846857,0.03456912,0.003529522,0.009164328,0.06557068,0.0057162037,0.004449486,0.0029669025,0.008240221,0.008048697,0.029244768,0.030014906,0.012299755,0.024899386,0.0062404354,0.013929888,0.017919397,0.015356368,0.008622746,0.041570496,0.029972423,0.014273454,0.007161348,0.023554666,0.009837315,0.01514422,0.0082944585,0.008480754,0.04273661,0.019354645,0.00765406,0.006858889,0.011217635,0.034168154,0.046359994,0.0042927763,0.0,0.0,0.0,0.0,0.0,0.0,0.0,0
23,0.0569043,0.007812044,0.023929326,0.010356655,0.0138987675,0.011447963,0.004850336,0.009308881,0.011398133,0.11573178,0.03842501,0.009894614,0.011697405,0.060354132,0.024811156,0.049520742,0.0231534,0.020350825,0.021961393,0.016448904,0.0648684,0.02241851,0.0034178498,0.0072298273,0.07929832,0.006429116,0.0066319676,0.00365001,0.0115095945,0.00806958,0.03157093,0.020886287,0.016793307,0.028485633,0.0067956373,0.012311559,0.014676596,0.013551267,0.009838952,0.039139174,0.024700204,0.011559213,0.011179104,0.022706835,0.008842885,0.018940564,0.008355432,0.007383489,0.029369969,0.019558953,0.010543885,0.005849457,0.00904991,0.0413197,0.04217131,0.0038399517,0.0,0.0,0.0,0.0,0.0,0.0,0.0,0
24,0.059325833,0.007271878,0.01777745,0.006928338,0.011361298,0.0113338865,0.004692216,0.0076819775,0.011148787,0.057258543,0.02670603,0.00852262,0.010625496,0.054166105,0.015324597,0.03759001,0.017071461,0.019458145,0.025728507,0.013212688,0.048444342,0.028321944,0.003881002,0.008224563,0.08026478,0.005529014,0.007272915,0.0043046973,0.008689165,0.006611509,0.021442212,0.020819267,0.014484561,0.025879206,0.007822574,0.014078264,0.010268604,0.01730303,0.009421104,0.03969736,0.028056333,0.010672628,0.008124347,0.023818213,0.009524727,0.016194342,0.0058612768,0.008602463,0.03190622,0.022029264,0.0079529565,0.0078098043,0.009999783,0.019780835,0.03803602,0.0052577225,0.0,0.0,0.0,0.0,0.0,0.0,0.0,0
25,0.062906265,0.007357022,0.020704435,0.0057588164,0.008736937,0.015381613,0.004392963,0.0063088066,0.011952615,0.0724503,0.034090966,0.00856644,0.008781255,0.054285336,0.018829105,0.031483054,0.023888076,0.012720771,0.016690671,0.016766312,0.065430425,0.022846904,0.0048268405,0.0069451868,0.07617595,0.0050656386,0.006276382,0.0036054847,0.010776557,0.0049349912,0.025851414,0.018018423,0.012073255,0.022716513,0.0076754764,0.01000493,0.016237587,0.015874827,0.008794569,0.030075734,0.023638718,0.015462867,0.011525073,0.018196587,0.011144444,0.014206624,0.005613995,0.0054333704,0.025980156,0.023983784,0.010429196,0.009305215,0.0089771,0.032311182,0.03260253,0.004957396,0.0,0.0,0.0,0.0,0.0,0.0,0.0,0
26,0.060432605,0.0058399527,0.015814465,0.004438603,0.010371378,0.015866593,0.004526561,0.0042000525,0.011580752,0.068358034,0.02501368,0.006627899,0.011159384,0.061634723,0.017940592,0.023688475,0.017329393,0.012954081,0.020699047,0.015304761,0.052391633,0.02142708,0.004153646,0.006137131,0.05867096,0.003700968,0.0050010076,0.004397005,0.009102781,0.008064703,0.019508585,0.014885633,0.010714838,0.022081684,0.0065612835,0.010448846,0.010620771,0.012245207,0.0065716607,0.0341167,0.018676681,0.01294842,0.014105826,0.022806395,0.007041849,0.0132824825,0.009342084,0.004648093,0.017946215,0.011244823,0.010257181,0.009866253,0.0073488397,0.019738974,0.035169054,0.004427449,0.0,0.0,0.0,0.0,0.0,0.0,0.0,0
27,0.051804975,0.0060619484,0.0147382,0.0054765767,0.008072471,0.014808864,0.0024434824,0.003848713,0.010470579,0.06876435,0.028645016,0.0071293632,0.005818345,0.062420815,0.010071596,0.03258609,0.0151798185,0.0131355105,0.0135859735,0.013902031,0.037976947,0.019528257,0.0035286816,0.0066469773,0.071220286,0.003519534,0.004180341,0.0031857104,0.0071832575,0.006223781,0.018899633,0.012488531,0.014541557,0.020303158,0.0059095183,0.008410425,0.0120164715,0.014976032,0.0077585718,0.037118565,0.014871637,0.012679143,0.010791912,0.02331315,0.005969184,0.00799619,0.007559973,0.0039204014,0.01537618,0.018161058,0.009598569,0.009006979,0.0058055017,0.012919277,0.028833669,0.0032878167,0.0,0.0,0.0,0.0,0.0,0.0,0.0,0
28,0.03593334,0.0050972877,0.011637225,0.0061131106,0.008329854,0.014192214,0.002973162,0.0038763199,0.0073367413,0.049465228,0.03718527,0.0042022956,0.0085563455,0.05572951,0.010722684,0.028258312,0.014750356,0.011367737,0.009750169,0.008925688,0.044136625,0.015343924,0.0027210014,0.008148065,0.07763609,0.0042406823,0.0048821727,0.0039451085,0.008299347,0.004125008,0.022746583,0.009557329,0.011658867,0.028153501,0.0041441014,0.006645784,0.015053525,0.011068051,0.007528422,0.03118346,0.013071561,0.014016533,0.009756887,0.018910673,0.0048490493,0.016957527,0.008153568,0.0053997026,0.012144827,0.013359279,0.007912301,0.008732961,0.006934175,0.019011248,0.026851587,0.0053552184,0.0,0.0,0.0,0.0,0.0,0.0,0.0,0
29,0.026578391,0.003920337,0.008277808,0.0027350823,0.0049632704,0.0097632175,0.002716721,0.0028264374,0.011558371,0.026924066,0.011693716,0.004048458,0.005389928,0.026526675,0.011545322,0.018942138,0.01895431,0.010256986,0.008668194,0.012483474,0.034598067,0.020165859,0.0015043434,0.0058279424,0.04304132,0.0026403586,0.0055087293,0.002122035,0.01053713,0.0038589886,0.020321248,0.008854868,0.010533144,0.020033412,0.0042601586,0.0063316026,0.010409164,0.009610999,0.004791989,0.023775246,0.016665496,0.0077560856,0.008170793,0.023710104,0.003991059,0.010432924,0.005618247,0.004780999,0.014277885,0.010955616,0.004680359,0.006602495,0.0053199455,0.014196105,0.018050654,0.0034708472,0.0,0.0,0.0,0.0,0.0,0.0,0.0,0
0,0.027279586,0.004903603,0.012972842,0.007398194,0.0040934477,0.010312722,0.0021864816,0.00530706,0.010698115,0.008188105,0.006597161,0.0014592889,0.00399247,0.0045870324,0.011843662,0.007859869,0.0038501876,0.0098841,0.003770098,0.006118092,0.012732722,0.0049124286,0.0020415764,0.0028840972,0.013688852,0.008564727,0.01741667,0.0013218824,0.004673999,0.006950969,0.017630113,0.043644544,0.017219765,0.014648069,0.0041277003,0.021305742,0.01938302,0.009578186,0.004123829,0.011479921,0.0055579557,0.0040084086,0.009068459,0.008521026,0.01330451,0.008405436,0.0031062234,0.009204398,0.015991881,0.008257695,0.0072206,0.0026859494,0.009506464,0.014237402,0.0031780535,0.003002346,0.0,0.0,0.0,0.0,0.0,0.0,0.0,1
1,0.036405735,0.0084234355,0.034944,0.01059405,0.007437581,0.031510722,0.0024160352,0.0039721886,0.010180314,0.009556378,0.008221468,0.0048365085,0.0037150772,0.01258098,0.017927459,0.011347897,0.005172984,0.013652575,0.011914821,0.010239131,0.020702476,0.0082204435,0.002642733,0.0031144922,0.015340752,0.012184461,0.009732404,0.002500179,0.023775494,0.008756111,0.044529334,0.020193156,0.011504348,0.013059777,0.0061815577,0.033432133,0.01710703,0.01483209,0.0035616984,0.01504205,0.008696644,0.005381272,0.0059989,0.010265779,0.022429435,0.013081592,0.0069396854,0.010358385,0.020852769,0.008177712,0.007573659,0.0032169826,0.012159324,0.014335074,0.004411136,0.0033815324,0.0,0.0,0.0,0.0,0.0,0.0,0.0,1
2,0.027012695,0.006087547,0.03159031,0.014805049,0.007854908,0.020649226,0.0031855553,0.004370002,0.0089327255,0.010921428,0.0048348545,0.004778766,0.0048905024,0.013995604,0.017964635,0.014611823,0.0074295155,0.022558173,0.012317575,0.011254916,0.022355363,0.008304828,0.0032689592,0.0035091287,0.011803983,0.008696713,0.00915001,0.0015611103,0.017109822,0.014699427,0.06821153,0.019577708,0.009659282,0.013793354,0.007388406,0.048597638,0.038687337,0.0142603,0.004219439,0.010661391,0.008918343,0.004107147,0.0047250222,0.0112979505,0.019729126,0.013391957,0.008142872,0.013594382,0.021331796,0.009992,0.008490927,0.0030532603,0.0071799015,0.015421116,0.007276393,0.0035091173,0.0,0.0,0.0,0.0,0.0,0.0,0.0,1
3,0.04525321,0.015145864,0.018434973,0.013516506,0.00737822,0.023214672,0.0029701015,0.005007588,0.012685796,0.010619369,0.006522662,0.002693694,0.005592958,0.013080583,0.01880808,0.012849216,0.009740005,0.014646174,0.012623451,0.010311445,0.033630308,0.014114067,0.004253446,0.0056047807,0.03152478,0.018339157,0.015962921,0.0018298314,0.013520334,0.016728757,0.044838205,0.057059016,0.016199768,0.010207894,0.008123131,0.043834012,0.018048929,0.010178247,0.005130097,0.01579422,0.011155363,0.006065525,0.0041427165,0.010289915,0.025762865,0.013923895,0.0062443507,0.01150715,0.021756545,0.021836663,0.008353182,0.005243828,0.0074629486,0.014351016,0.0073954267,0.0056032767,0.0,0.0,0.0,0.0,0.0,0.0,0.0,1
4,0.048428185,0.016467975,0.025544427,0.015295638,0.014006301,0.029743293,0.0037988066,0.0077364263,0.016495308,0.015274493,0.006974396,0.003294863,0.008399749,0.009151071,0.01931386,0.01643918,0.0065622763,0.020835407,0.012592055,0.010754766,0.043800108,0.015552361,0.0048513967,0.0077981926,0.034751173,0.029142201,0.019355182,0.0028139008,0.0135149965,0.01683956,0.044295035,0.04113938,0.035951797,0.01251527,0.008355733,0.04029737,0.035282355,0.0131197795,0.0058200895,0.014778066,0.012202683,0.008563971,0.00705158,0.019184504,0.023663647,0.014541812,0.013060261,0.015582647,0.013154421,0.04225622,0.006298087,0.0049237967,0.008012131,0.0113533605,0.009168897,0.0037041456,0.0,0.0,0.0,0.0,0.0,0.0,0.0,1
5,0.053466853,0.011101207,0.04138057,0.030719567,0.014440479,0.023588872,0.0038969317,0.0057927677,0.01724773,0.017089631,0.012311117,0.004212857,0.0072761737,0.012852185,0.019536497,0.017769933,0.007885571,0.015780723,0.015195802,0.017770685,0.037925426,0.015989067,0.0048856614,0.0064247227,0.031054633,0.028952569,0.031145856,0.0036892209,0.030512977,0.022779148,0.060215052,0.043851357,0.031668577,0.018875439,0.013201971,0.062454857,0.023873765,0.015673002,0.006635778,0.015899632,0.011249324,0.012262642,0.013777068,0.018031357,0.029500224,0.01889172,0.010658599,0.014408025,0.023165716,0.049972676,0.01147631,0.0065719783,0.016839854,0.019251944,0.0132056605,0.0053498913,0.0,0.0,0.0,0.0,0.0,0.0,0.0,1
6,0.033665232,0.02288191,0.040495306,0.029902313,0.01224558,0.038016777,0.004755564,0.006875387,0.02037598,0.019411992,0.01032011,0.006219076,0.0060782535,0.01845973,0.023509681,0.019226452,0.009566583,0.0185708,0.02096662,0.02902768,0.03980684,0.016178051,0.005665257,0.0074584456,0.03847254,0.023497276,0.0371408,0.004521613,0.02398603,0.035514485,0.056228574,0.039218202,0.054097798,0.036393553,0.014444931,0.03908836,0.027672566,0.010440216,0.0034720302,0.015121678,0.016611403,0.0147547,0.0122890845,0.031485602,0.026600452,0.01986175,0.01173403,0.01685222,0.034651957,0.049420048,0.012768352,0.0057854694,0.020464536,0.026620515,0.011047494,0.0049119615,0.0,0.0,0.0,0.0,0.0,0.0,0.0,1
7,0.04377509,0.011246572,0.057132088,0.04428163,0.018667687,0.031542633,0.005922597,0.008622212,0.026645228,0.020133188,0.013844577,0.006039207,0.0072342744,0.016907066,0.023676055,0.018295197,0.012304315,0.017508237,0.0250507,0.02553644,0.040338952,0.013773311,0.007814384,0.008311463,0.05612595,0.022610977,0.035377063,0.005017109,0.024566324,0.03297258,0.09108157,0.050727878,0.06252818,0.037034336,0.017153235,0.073603675,0.03152783,0.018393328,0.0032691346,0.01916413,0.014442122,0.010648633,0.015519709,0.024499875,0.025441296,0.013135816,0.020711638,0.016818035,0.03797443,0.039477915,0.020653766,0.0065895016,0.019272625,0.030598566,0.013424147,0.009330406,0.0,0.0,0.0,0.0,0.0,0.0,0.0,1
8,0.04881866,0.01648699,0.05946127,0.036362186,0.017017484,0.023512734,0.008488452,0.011501712,0.029873347,0.019899132,0.016053459,0.0046191057,0.007518797,0.020493567,0.02609388,0.029534817,0.012630887,0.029180838,0.028295787,0.030322148,0.044081215,0.018442532,0.008007753,0.011068151,0.048697963,0.03393657,0.036400165,0.006217208,0.022177016,0.038909808,0.06629837,0.055741806,0.051887456,0.030421179,0.021093696,0.059337243,0.022171289,0.021443553,0.0038307435,0.028530832,0.0125067625,0.011608129,0.015035033,0.027915884,0.02333831,0.017501803,0.01289479,0.018852966,0.03891053,0.035085946,0.010855568,0.0048225755,0.018189076,0.031385448,0.03119559,0.008749382,0.0,0.0,0.0,0.0,0.0,0.0,0.0,1
9,0.06333739,0.020420926,0.051032778,0.049480006,0.01865793,0.026521694,0.009556696,0.009814143,0.032222915,0.015562652,0.018149061,0.0064561665,0.00720942,0.01665914,0.032848455,0.022528056,0.010772334,0.025634669,0.035547808,0.031167388,0.06824658,0.015105863,0.009531869,0.0115498705,0.06652462,0.03707559,0.02718953,0.0078234235,0.027833672,0.03649131,0.0852797,0.07512017,0.04731973,0.033283863,0.018695673,0.074489824,0.022793282,0.021833237,0.0042659044,0.032819614,0.017531607,0.010452214,0.0137514435,0.03314041,0.03316995,0.017917695,0.013244794,0.017347835,0.032917466,0.032189813,0.015443358,0.005061827,0.022607664,0.027457576,0.027501505,0.0090068,0.0,0.0,0.0,0.0,0.0,0.0,0.0,1
10,0.044061225,0.02039396,0.046604767,0.05112873,0.020585835,0.027390793,0.007843851,0.010092644,0.035099562,0.017747335,0.017842611,0.0066840244,0.01030076,0.016025845,0.043101385,0.019223105,0.0106826825,0.030956274,0.031145705,0.032300137,0.065787815,0.021927703,0.007515896,0.014422021,0.07041594,0.032074306,0.03640263,0.010756818,0.031027248,0.038671408,0.09073105,0.08947411,0.050102867,0.029700281,0.01647374,0.053351674,0.034375146,0.019037057,0.0039936267,0.026453706,0.0169898,0.00924298,0.011214933,0.03572383,0.03156993,0.01359617,0.014996543,0.028827386,0.029363886,0.032390647,0.0160313,0.004400195,0.022804782,0.034000803,0.030732352,0.011762322,0.0,0.0,0.0,0.0,0.0,0.0,0.0,1
11,0.07532073,0.020517014,0.05217623,0.046587277,0.026932305,0.033794045,0.011204611,0.010670272,0.04146812,0.03118631,0.01841165,0.00771005,0.0091943955,0.0134651745,0.02976718,0.020388337,0.014201924,0.024967074,0.03699449,0.038544867,0.10769257,0.030242039,0.008775273,0.015694827,0.09877641,0.028648026,0.049571335,0.01157159,0.032162372,0.042847335,0.087049805,0.08815936,0.045535985,0.028507845,0.025556663,0.06469606,0.015750324,0.020008681,0.004019816,0.02537012,0.018141052,0.012827563,0.012764265,0.026893353,0.027706236,0.020851968,0.010675232,0.028502556,0.034754224,0.05901216,0.019711426,0.0049764663,0.024773788,0.034150857,0.03179323,0.010370436,0.0,0.0,0.0,0.0,0.0,0.0,0.0,1
12,0.09614323,0.016236465,0.074315146,0.04974,0.019046582,0.040127262,0.013156615,0.010547226,0.039510112,0.03469026,0.016156768,0.005830809,0.008361299,0.02177565,0.031489067,0.020824587,0.017642146,0.029999912,0.040716592,0.040654663,0.09388421,0.033917245,0.013530073,0.017325148,0.097169414,0.037119567,0.057966217,0.0113956425,0.040613346,0.05261302,0.1120348,0.07132351,0.054939535,0.037520453,0.019406617,0.094825804,0.018836424,0.016496034,0.0021569016,0.01670237,0.026162358,0.011102642,0.0100451335,0.024419663,0.03250663,0.021670401,0.0078117843,0.028301822,0.04142722,0.0617595,0.016874112,0.005372085,0.019540722,0.042450566,0.03313902,0.008334467,0.0,0.0,0.0,0.0,0.0,0.0,0.0,1
13,0.079162896,0.014773271,0.08813805,0.07802611,0.021196947,0.052181806,0.015021499,0.011989245,0.03859501,0.02860596,0.014305137,0.007686438,0.007414963,0.02029636,0.03619751,0.016002862,0.014355789,0.032012098,0.03446907,0.0497745,0.087502845,0.02993636,0.013427682,0.021143869,0.11272173,0.03349019,0.057353064,0.009829237,0.057133585,0.055100296,0.14425568,0.11734446,0.06721824,0.027248347,0.020449882,0.08276512,0.01463244,0.01668787,0.0032024276,0.019678907,0.022753911,0.009994085,0.0075944187,0.025903838,0.04292875,0.01921367,0.00937491,0.023989402,0.051559918,0.048746392,0.021148754,0.007801887,0.02452187,0.0373453,0.02283909,0.008557593,0.0,0.0,0.0,0.0,0.0,0.0,0.0,1
14,0.07429363,0.021053817,0.10024072,0.06848743,0.021601086,0.061573766,0.010419602,0.010565561,0.042119823,0.047040183,0.015217565,0.00927258,0.008280908,0.020818615,0.025940917,0.016223053,0.023415938,0.02746022,0.032148436,0.044050008,0.09497835,0.042656194,0.010410083,0.022170445,0.16490763,0.036656473,0.055503026,0.009100721,0.053699385,0.072612055,0.06559958,0.14397965,0.078761116,0.031908263,0.025869649,0.069097325,0.02843425,0.017761376,0.0025457605,0.019069046,0.031404026,0.0114819985,0.013163707,0.03144731,0.040491037,0.025624426,0.011365111,0.018405706,0.040985465,0.052631497,0.024789196,0.008386029,0.026035978,0.051902216,0.01892153,0.011332893,0.0,0.0,0.0,0.0,0.0,0.0,0.0,1
15,0.12748204,0.029257653,0.06547551,0.06468229,0.01868209,0.04859428,0.013911198,0.012277121,0.035128914,0.050845053,0.01939352,0.0075838827,0.010351283,0.019102775,0.02676719,0.028493037,0.02157067,0.026412487,0.039101787,0.042623233,0.091025434,0.04568152,0.011525741,0.023542654,0.12719204,0.046946302,0.06807884,0.009102197,0.036729313,0.051742885,0.169406,0.13290212,0.07190637,0.036952514,0.017148066,0.060286596,0.028322697,0.023035074,0.0041502086,0.023742877,0.03749193,0.009963384,0.015426289,0.030757945,0.036876436,0.023431169,0.0149780065,0.019087436,0.028187482,0.05596321,0.015384174,0.007986058,0.021334996,0.04686061,0.021896755,0.008930632,0.0,0.0,0.0,0.0,0.0,0.0,0.0,1
16,0.15211657,0.024120614,0.07943316,0.06927407,0.01939722,0.059925,0.014769287,0.0119907735,0.030799834,0.048913646,0.015233702,0.010065582,0.01117801,0.016768452,0.02949447,0.038126767,0.022952545,0.026804218,0.033413183,0.06011877,0.09323859,0.05918596,0.010587262,0.02509347,0.10940902,0.048496712,0.05418505,0.007934981,0.030871348,0.05164633,0.17385481,0.11073688,0.083666705,0.041835383,0.02685597,0.06598293,0.0247038,0.037126772,0.004467006,0.026597006,0.041104272,0.0069903284,0.010933938,0.032036304,0.050819676,0.023245947,0.014255444,0.03763699,0.03494435,0.040617112,0.012717925,0.009274405,0.020352373,0.05009487,0.019305421,0.01103722,0.0,0.0,0.0,0.0,0.0,0.0,0.0,1
17,0.13720655,0.03604167,0.07390794,0.08358457,0.02772882,0.046486545,0.012869881,0.015588918,0.02706819,0.034187306,0.017164633,0.011703816,0.008565704,0.015407732,0.026647551,0.041153073,0.016979482,0.023525296,0.034191635,0.050805643,0.11787985,0.044948768,0.00665293,0.023689171,0.14025608,0.055173468,0.055470783,0.013470855,0.035870437,0.050918773,0.12028299,0.16062003,0.053998284,0.05079878,0.029639486,0.058222774,0.023814546,0.021587992,0.0061773895,0.037214883,0.026626024,0.008940075,0.012504998,0.026156576,0.040033713,0.024600942,0.011446221,0.034862347,0.042151082,0.035445765,0.014670363,0.009134295,0.018723493,0.04459696,0.020049842,0.010769236,0.0,0.0,0.0,0.0,0.0,0.0,0.0,1
18,0.1428159,0.02533746,0.078313775,0.0873279,0.022917552,0.027363298,0.011067633,0.0177779,0.03539532,0.041319065,0.029109977,0.008293792,0.00841786,0.015386699,0.035561007,0.04322513,0.027172556,0.03516414,0.028549176,0.052043047,0.14145873,0.06735719,0.010130178,0.021594062,0.20811954,0.062230837,0.084215574,0.015256195,0.024354408,0.056170404,0.13619694,0.23470823,0.07066524,0.058305454,0.032515917,0.053896077,0.02588529,0.026741803,0.0063689817,0.03123988,0.03178853,0.013350932,0.014966784,0.045317676,0.05013121,0.018911336,0.024583219,0.023901518,0.02931416,0.028582042,0.012564104,0.008291967,0.021851178,0.040952843,0.025541848,0.011699271,0.0,0.0,0.0,0.0,0.0,0.0,0.0,1
19,0.17793371,0.036504366,0.07173108,0.06451965,0.022139026,0.04732153,0.0155959455,0.017526587,0.029176379,0.042431377,0.016178755,0.0064802757,0.008435729,0.01661077,0.028965006,0.044128954,0.03642683,0.0369378,0.029831497,0.05699041,0.09377017,0.06779243,0.010105306,0.022651667,0.18369412,0.04955019,0.07000399,0.012792545,0.02798535,0.057306383,0.103955686,0.24740843,0.06839669,0.05648055,0.029249987,0.06038993,0.027958691,0.022939716,0.0047982973,0.019969955,0.021211516,0.016175756,0.01306016,0.027920494,0.03484559,0.01128604,0.011693159,0.022372764,0.03668525,0.02228456,0.011044798,0.004963785,0.01611531,0.04563725,0.015880123,0.011553726,0.0,0.0,0.0,0.0,0.0,0.0,0.0,1
20,0.12523015,0.04099737,0.08665127,0.072670825,0.035114083,0.03921559,0.011675378,0.014503181,0.029075876,0.055984024,0.0137986895,0.0057405042,0.00964251,0.016794525,0.027603816,0.0439742,0.026437879,0.023396498,0.023388676,0.047311842,0.09084487,0.05035269,0.009573848,0.023110654,0.1729778,0.054043688,0.065945044,0.013203866,0.034113053,0.06158602,0.14441802,0.13554321,0.048588462,0.040041905,0.018942367,0.039477177,0.01314735,0.012380023,0.0033178532,0.02509333,0.019991122,0.011911114,0.011339397,0.02369432,0.02982031,0.011061654,0.012764034,0.023853216,0.038274985,0.015995054,0.0137453,0.0062379586,0.016228812,0.033695236,0.02337503,0.009325796,0.0,0.0,0.0,0.0,0.0,0.0,0.0,1
21,0.15512045,0.032361742,0.0681197,0.088631615,0.041651342,0.037803754,0.012713286,0.01591315,0.027839301,0.040727656,0.013753527,0.008379012,0.009226222,0.011682108,0.023936216,0.038156744,0.02276019,0.029272705,0.024461675,0.052837387,0.07563697,0.040326044,0.009048297,0.022431176,0.2180555,0.06192865,0.054151088,0.015010383,0.031979688,0.035503145,0.23616907,0.0691205,0.041663677,0.031834137,0.019347426,0.03888355,0.022639353,0.010676564,0.004511473,0.01988623,0.018372651,0.013558243,0.008098915,0.024170464,0.032296155,0.011920567,0.015702017,0.025612237,0.043934427,0.026000487,0.01383992,0.0042377645,0.013843921,0.030414123,0.023684064,0.009426894,0.0,0.0,0.0,0.0,0.0,0.0,0.0,1
22,0.11063449,0.031978436,0.061390243,0.05357316,0.029106973,0.030064434,0.011241138,0.011619992,0.029051317,0.025869831,0.011069632,0.0067589325,0.009421203,0.009834188,0.021692777,0.034547467,0.018193632,0.03492099,0.020577729,0.04763441,0.104460694,0.04614316,0.007085381,0.018717721,0.16333057,0.0441706,0.038775764,0.025660016,0.03600879,0.042982616,0.11105315,0.071408235,0.037990972,0.02972725,0.024617553,0.029706731,0.027322622,0.011737668,0.004729906,0.018215273,0.016440805,0.009488775,0.0064493124,0.016988864,0.02955462,0.008749172,0.0101263905,0.019792423,0.024849243,0.02589343,0.013675486,0.0046637743,0.008881752,0.022496743,0.01670059,0.009139475,0.0,0.0,0.0,0.0,0.0,0.0,0.0,1
23,0.12660219,0.03851088,0.07770178,0.052218717,0.03357477,0.028995581,0.012983365,0.010279038,0.027920147,0.031504348,0.009854427,0.0049765385,0.009888981,0.008834254,0.017997924,0.022340607,0.017813303,0.029800434,0.023059357,0.031538557,0.080638506,0.03529294,0.0073892395,0.017623356,0.1623004,0.045259118,0.035500865,0.018197352,0.027538473,0.03883108,0.16292018,0.08934293,0.04137576,0.03038834,0.019108701,0.021748928,0.019064473,0.009435998,0.0041864514,0.017015567,0.01675086,0.0074152835,0.010198503,0.011920465,0.039395116,0.0076439995,0.008308286,0.016290264,0.020430062,0.020621603,0.012423478,0.004831271,0.00960984,0.021899128,0.015227553,0.007383927,0.0,0.0,0.0,0.0,0.0,0.0,0.0,1
24,0.09302312,0.025848893,0.05970211,0.03986897,0.023302453,0.028285824,0.00996891,0.012720632,0.030356383,0.043164745,0.010201718,0.005020446,0.010064093,0.010780161,0.019083971,0.018208133,0.016829953,0.018345999,0.018764284,0.027555587,0.13398898,0.027464723,0.008125337,0.01740507,0.17510591,0.0400109,0.047594074,0.010664961,0.048523195,0.07761891,0.13634083,0.10218745,0.039126668,0.032269098,0.01468758,0.028556824,0.025124012,0.009780783,0.0049436335,0.012096374,0.017698156,0.008617223,0.00842489,0.011175882,0.025647705,0.005341036,0.0068919775,0.012644201,0.018993907,0.025286661,0.008383152,0.005074102,0.01224033,0.02446527,0.02374922,0.006961946,0.0,0.0,0.0,0.0,0.0,0.0,0.0,1
25,0.11144721,0.0198993,0.06626819,0.02442645,0.03006615,0.029106492,0.0075836647,0.009646298,0.02402705,0.051488377,0.010383109,0.005300132,0.006763477,0.010914696,0.021718305,0.014345549,0.020853076,0.014240216,0.014478933,0.029078143,0.13018586,0.04138974,0.008096255,0.013501515,0.21404336,0.046310116,0.04061636,0.010581944,0.030731516,0.04391745,0.15898857,0.096737295,0.026071968,0.032996994,0.020221911,0.020716118,0.019638425,0.0062929983,0.0040676333,0.013202802,0.015543967,0.0057365154,0.009944886,0.008152965,0.027509436,0.0068340166,0.006066124,0.009183567,0.024706494,0.014015385,0.01141708,0.0058786813,0.0067208754,0.016962167,0.0271657,0.0058653126,0.0,0.0,0.0,0.0,0.0,0.0,0.0,1
26,0.12643829,0.017200729,0.076683186,0.024510711,0.025030369,0.028474323,0.007642884,0.0079568755,0.018435061,0.04276515,0.009087271,0.0057057976,0.007518796,0.009798288,0.028980237,0.013412612,0.015085883,0.01372078,0.014576185,0.028740289,0.13297203,0.034766603,0.0053946273,0.0132802455,0.12390915,0.039554905,0.04430023,0.013001417,0.020256381,0.044882994,0.1025224,0.06688504,0.033314068,0.029879127,0.013625679,0.020232184,0.016550787,0.006001094,0.0046484554,0.016828151,0.01084921,0.004232239,0.0066311886,0.006097904,0.028335366,0.0073170494,0.0056547765,0.008486526,0.016305318,0.015146322,0.011210715,0.008037393,0.0075677005,0.014890099,0.0238903,0.0055861156,0.0,0.0,0.0,0.0,0.0,0.0,0.0,1
27,0.1271339,0.02385412,0.06754463,0.02069885,0.015632188,0.023291595,0.010682787,0.01254167,0.01219233,0.051223632,0.007863848,0.0036266795,0.0073729097,0.010017781,0.024801847,0.017970445,0.0142714,0.01367565,0.0095625715,0.026636142,0.12444648,0.018681437,0.0045470027,0.008685999,0.07137411,0.039535873,0.029597547,0.00771643,0.025777185,0.034737542,0.07210656,0.06028156,0.032985073,0.026476016,0.013830094,0.016731739,0.015097889,0.004994502,0.0036465067,0.023670224,0.010902835,0.0057445075,0.008660903,0.0047874656,0.022572234,0.009114952,0.0036561212,0.009502874,0.013810058,0.013964833,0.011626371,0.007446717,0.007549745,0.018113857,0.030864507,0.0044942405,0.0,0.0,0.0,0.0,0.0,0.0,0.0,1
28,0.0735835,0.021471703,0.06786937,0.019379446,0.011737262,0.019429184,0.012816631,0.009003991,0.013180897,0.03779689,0.005537924,0.0025591862,0.006560996,0.007573578,0.024447648,0.0132173095,0.009143146,0.014526016,0.008822783,0.026149701,0.10185115,0.018457334,0.0041829366,0.00690909,0.08034991,0.023876952,0.04827858,0.011098172,0.01578428,0.046219744,0.09958791,0.084956564,0.034408163,0.019654421,0.014091389,0.012352234,0.011338383,0.003541199,0.004617888,0.011839022,0.008433403,0.003948638,0.008744719,0.00472694,0.020736896,0.008408253,0.007959532,0.006777032,0.011528417,0.009690017,0.008503815,0.00597764,0.0062470627,0.016854582,0.026557568,0.003384962,0.0,0.0,0.0,0.0,0.0,0.0,0.0,1
29,0.053358342,0.016859379,0.05747559,0.014943734,0.0065194597,0.014255579,0.0067630294,0.0094807325,0.008921757,0.041562777,0.0067814346,0.0038151173,0.007937206,0.0052947477,0.016000867,0.009752593,0.009202247,0.01115118,0.010152803,0.020849755,0.06671003,0.015106248,0.0027574566,0.007833995,0.06670606,0.024373747,0.06416435,0.008342035,0.015676806,0.041919,0.09165462,0.066979855,0.027988847,0.013570438,0.012536119,0.012529029,0.0119287055,0.0021523144,0.0030068671,0.010353504,0.009707024,0.005501016,0.009393316,0.004373725,0.014332821,0.008868209,0.0065684468,0.006381204,0.009395505,0.0070178215,0.008342899,0.005620967,0.0047324286,0.011076718,0.01382834,0.002897622,0.0,0.0,0.0,0.0,0.0,0.0,0.0,1
0,0.014904289,0.0051814113,0.010173319,0.008084885,0.007871362,0.0044375523,0.0029372745,0.0067550717,0.018302523,0.046479408,0.010610426,0.0022185643,0.0050623133,0.0032232623,0.007233762,0.030270193,0.024665806,0.014110631,0.005051755,0.014343547,0.03270293,0.008023695,0.0042138514,0.004179738,0.021282416,0.009959654,0.008150833,0.0013796561,0.0041444455,0.004926812,0.016052302,0.017011346,0.010259654,0.010030245,0.0031162687,0.012436528,0.0057609486,0.004423109,0.0033976648,0.028982602,0.007934496,0.0038359682,0.0031852764,0.0052885697,0.0116720805,0.005398334,0.0055116434,0.011099259,0.024257606,0.006240194,0.010132115,0.0019054983,0.007275,0.012287605,0.009388722,0.0015206233,0.0,0.0,0.0,0.0,0.0,0.0,0.0,2
1,0.015198826,0.0063510127,0.007407532,0.0122637665,0.008666795,0.0065153986,0.0031379955,0.0053992015,0.018883638,0.019583207,0.0076434137,0.0018747562,0.0060192198,0.0035152002,0.010942132,0.043839637,0.018779935,0.016052859,0.01575394,0.018070985,0.052420795,0.01291924,0.005290418,0.0061577284,0.031516265,0.01272497,0.013509156,0.0023417631,0.005799408,0.008008946,0.016649768,0.02017578,0.008784102,0.009540331,0.0022085859,0.010896499,0.005991256,0.0066068126,0.002652822,0.029394278,0.008651254,0.0076198713,0.004109281,0.009081073,0.021683214,0.008146812,0.005313008,0.012728281,0.019792093,0.011759517,0.0091869235,0.0028982651,0.0075287716,0.01676499,0.015663946,0.002190592,0.0,0.0,0.0,0.0,0.0,0.0,0.0,2
2,0.02284378,0.0061367746,0.009258581,0.013686922,0.024661275,0.011022733,0.0037173815,0.010761657,0.02681645,0.040177193,0.011601537,0.0068051284,0.0058318432,0.0068270443,0.020916622,0.051464777,0.017129973,0.016221939,0.011867099,0.015139208,0.05530459,0.011164694,0.004835948,0.0059586307,0.029472964,0.01400698,0.0128330095,0.0028095625,0.008057905,0.009274533,0.020416128,0.020938994,0.006682241,0.012053637,0.0035014218,0.024260482,0.00797728,0.013482474,0.0032796743,0.03376365,0.0073964237,0.0074942852,0.005370736,0.007917122,0.021339167,0.010485858,0.006677735,0.020114474,0.027612058,0.01610691,0.008087241,0.0020179378,0.0062532783,0.020688312,0.021856843,0.0015359686,0.0,0.0,0.0,0.0,0.0,0.0,0.0,2
3,0.025957588,0.009076282,0.008610692,0.015389941,0.022917802,0.012254387,0.007672762,0.011445018,0.032841083,0.037309457,0.009081568,0.0034595553,0.006664197,0.00471132,0.01659934,0.051537268,0.023892323,0.027071986,0.009031754,0.023443364,0.06251591,0.02058189,0.0053533916,0.007487833,0.050096378,0.014489201,0.013941954,0.003352883,0.007468227,0.013347525,0.021822,0.0231314,0.00920383,0.018184608,0.0036023892,0.017133798,0.010750528,0.005780594,0.0042785937,0.03971886,0.013118601,0.010747138,0.0051536663,0.0073766033,0.020352945,0.010365318,0.012102313,0.0221147,0.034817487,0.015963893,0.0067058774,0.0036064717,0.0072414624,0.020906933,0.01907936,0.0021520646,0.0,0.0,0.0,0.0,0.0,0.0,0.0,2
4,0.030861257,0.009008842,0.010270194,0.016388008,0.018412774,0.015418368,0.006276547,0.007560044,0.040508132,0.02695085,0.01187627,0.0047252765,0.012583389,0.0054940474,0.028724488,0.05735513,0.020048808,0.030734465,0.010891421,0.02835392,0.07145569,0.020544069,0.0055675874,0.008900173,0.041990522,0.015325993,0.014721373,0.0026846193,0.0062082494,0.016192295,0.025448201,0.027069243,0.009245505,0.02005314,0.0038502894,0.018459605,0.016307496,0.0063501378,0.005256838,0.041676503,0.012823987,0.015002127,0.007251047,0.008456537,0.023502333,0.010597756,0.01813326,0.023295926,0.043074865,0.016827267,0.010301211,0.0044240807,0.010013522,0.02308748,0.039729282,0.0028227991,0.0,0.0,0.0,0.0,0.0,0.0,0.0,2
5,0.034188546,0.0120268315,0.013706329,0.024601942,0.027227374,0.019964984,0.006820623,0.0074423268,0.04789375,0.020641033,0.020448346,0.009993393,0.015033949,0.0066049495,0.03188646,0.046425615,0.021381473,0.028325813,0.013746649,0.042230736,0.080280684,0.026305558,0.00569776,0.008840401,0.035245903,0.015867794,0.022650812,0.0043487516,0.011586068,0.017130813,0.024047779,0.030536542,0.008552442,0.026689822,0.004185048,0.03721719,0.022618601,0.010378584,0.0055168974,0.044733174,0.011684664,0.0076472987,0.0070704245,0.008888569,0.027178423,0.017495006,0.019359147,0.032098837,0.039171744,0.022157565,0.013939003,0.005049635,0.011084711,0.024717445,0.039456155,0.003222787,0.0,0.0,0.0,0.0,0.0,0.0,0.0,2
6,0.040685955,0.011136739,0.011110838,0.024126338,0.017969795,0.011171614,0.0057826224,0.0077661844,0.04105289,0.021919793,0.018258939,0.0041113603,0.0139484005,0.007000074,0.034818783,0.05821873,0.025462292,0.030446265,0.014987612,0.041358016,0.07743738,0.027134154,0.007703116,0.012076113,0.05147942,0.023682287,0.019229729,0.0051888996,0.010630011,0.012717518,0.018331738,0.037618052,0.0107234605,0.019599982,0.0053777522,0.036573432,0.021657854,0.010702588,0.0055761156,0.046593163,0.012018424,0.0063580396,0.005909632,0.008701971,0.025355482,0.02508336,0.021515716,0.038043622,0.0464753,0.023112906,0.01187187,0.00498578,0.017102495,0.024836577,0.028368253,0.004252454,0.0,0.0,0.0,0.0,0.0,0.0,0.0,2
7,0.037574146,0.008132174,0.009390244,0.021075424,0.029685894,0.017531186,0.0055953385,0.008412914,0.06520037,0.014446134,0.018294165,0.00897856,0.019510554,0.0066592125,0.025603417,0.05381251,0.02252754,0.03518586,0.016898988,0.033591658,0.061941072,0.022095934,0.008821757,0.010221237,0.044295862,0.02633787,0.014705518,0.0042486642,0.011797893,0.018800957,0.016799817,0.03404681,0.018888166,0.02717523,0.0055183102,0.03595608,0.01942494,0.010207033,0.0063265474,0.04458868,0.013624445,0.013067897,0.008779153,0.01006341,0.02111462,0.028711556,0.033571213,0.038035,0.047818944,0.01627727,0.02447045,0.006394398,0.020002415,0.031347662,0.02460572,0.0036417732,0.0,0.0,0.0,0.0,0.0,0.0,0.0,2
8,0.039599005,0.009448382,0.0106281,0.028980002,0.032713912,0.024659805,0.008665596,0.011086971,0.048599396,0.014632946,0.021128824,0.009978832,0.016835453,0.013290431,0.032239273,0.06754307,0.03124522,0.029969439,0.014938141,0.03525214,0.058692876,0.029443985,0.0064080274,0.014456763,0.05454175,0.02413798,0.018987194,0.007880913,0.015146592,0.023948899,0.019615434,0.038883656,0.0145200025,0.023171615,0.008246842,0.039314765,0.022231717,0.013013708,0.008401471,0.046718586,0.014823325,0.014127036,0.010371498,0.009453478,0.011494952,0.03131905,0.026379403,0.042866886,0.05544802,0.0219219,0.029439105,0.0056468635,0.023429558,0.025067288,0.060979165,0.0034028874,0.0,0.0,0.0,0.0,0.0,0.0,0.0,2
9,0.03718342,0.009917093,0.010653596,0.027023165,0.02952762,0.02602207,0.007394148,0.011330173,0.05094605,0.02415679,0.019962858,0.009657551,0.01712028,0.009577703,0.029036462,0.052526254,0.031278748,0.041142624,0.016735416,0.039042063,0.06100552,0.022192046,0.007026349,0.012565402,0.052421365,0.026917834,0.01666311,0.005981829,0.016211608,0.01587814,0.02133357,0.05026135,0.019405603,0.031813517,0.006890349,0.050878193,0.026230106,0.008727662,0.008672212,0.04233532,0.019226687,0.00830305,0.011779282,0.010795691,0.01142104,0.033434924,0.032289162,0.043702956,0.062357035,0.021697555,0.026134562,0.0059023914,0.01957704,0.02496366,0.05564254,0.002884659,0.0,0.0,0.0,0.0,0.0,0.0,0.0,2
10,0.040946856,0.012789167,0.014564644,0.027781712,0.035561565,0.027663432,0.008498505,0.008602803,0.038831327,0.023503141,0.015769286,0.0056402874,0.01654998,0.011083749,0.021106,0.05722701,0.033942964,0.031299863,0.0147607885,0.035672784,0.057105485,0.02839374,0.007923903,0.012604746,0.0773215,0.035912294,0.023736654,0.008085998,0.016133368,0.01837425,0.02408639,0.042851586,0.019101094,0.025649576,0.009065051,0.029497707,0.017632717,0.009005555,0.0068981606,0.036270637,0.016910564,0.010982001,0.01053843,0.009111569,0.0110313445,0.034295242,0.0330193,0.04284276,0.07060758,0.023825208,0.030068688,0.008421919,0.024580533,0.03197658,0.030412527,0.003072388,0.0,0.0,0.0,0.0,0.0,0.0,0.0,2
11,0.035819948,0.012552174,0.0122875795,0.03053036,0.02966165,0.043568574,0.008135222,0.009433407,0.03955227,0.035794936,0.015217834,0.01015406,0.018593986,0.010294914,0.028665645,0.052665625,0.03674508,0.046003014,0.018450053,0.03403899,0.055473816,0.033990595,0.007600065,0.013444297,0.08682938,0.03259291,0.026936613,0.00921063,0.015829457,0.02895236,0.027849006,0.03849119,0.019908378,0.027680356,0.01072672,0.07223798,0.024383679,0.015166036,0.009102616,0.034311805,0.023669193,0.00923816,0.011908584,0.013852942,0.008030113,0.036404572,0.033022612,0.033972833,0.075183704,0.03335259,0.023719002,0.009592752,0.028140925,0.025595004,0.036717307,0.0030779454,0.0,0.0,0.0,0.0,0.0,0.0,0.0,2
12,0.04064297,0.01538469,0.013838439,0.03449669,0.019120317,0.039723076,0.009447215,0.008931175,0.03362517,0.040201437,0.022088552,0.007995101,0.019942421,0.00983111,0.027754132,0.044607583,0.035368774,0.038856864,0.020627009,0.043188896,0.03339931,0.04474804,0.0073021995,0.014222145,0.088851675,0.030955585,0.029046621,0.008507409,0.018371038,0.02099789,0.023045212,0.05807062,0.021337537,0.033201765,0.0127650015,0.034823366,0.013492191,0.011680157,0.007080942,0.026480734,0.028460976,0.012614592,0.01265527,0.014343586,0.012787433,0.031074937,0.03618705,0.02984874,0.07716119,0.025482388,0.026539192,0.0065132533,0.022162138,0.035706166,0.04986188,0.004678804,0.0,0.0,0.0,0.0,0.0,0.0,0.0,2
13,0.045937378,0.01678628,0.013106591,0.029034367,0.02745496,0.044298954,0.010313271,0.00870705,0.024099976,0.028390307,0.023054883,0.0050542583,0.02210289,0.009502153,0.023271516,0.03530267,0.027958779,0.037031095,0.0262984,0.03306845,0.05625377,0.028415062,0.0065921014,0.010433664,0.070172794,0.036865942,0.028749982,0.009425528,0.014880049,0.03315366,0.02229147,0.047487576,0.02300402,0.017637502,0.013346648,0.051538542,0.01993763,0.011823257,0.012619476,0.026171397,0.029720502,0.007626976,0.012248185,0.018994112,0.010698321,0.034814354,0.035150252,0.03941569,0.065669805,0.025052233,0.023422534,0.007227383,0.014991249,0.037081107,0.036642704,0.004045699,0.0,0.0,0.0,0.0,0.0,0.0,0.0,2
14,0.0463871,0.014904049,0.018183744,0.028468046,0.03306599,0.034895826,0.011281444,0.006584229,0.02799745,0.03631728,0.021318452,0.006182234,0.0134069575,0.011226437,0.028303768,0.048762217,0.030370602,0.037530668,0.0233459,0.034052983,0.05229015,0.032527786,0.008296176,0.014124232,0.07767656,0.022829365,0.03275585,0.011867508,0.01660205,0.032666747,0.019535016,0.05815739,0.022574266,0.017121222,0.018299825,0.05100366,0.023346405,0.015041289,0.011354764,0.027820857,0.0335635,0.0073671476,0.008341053,0.015260676,0.00770768,0.03529903,0.025374183,0.03746075,0.06360315,0.025382252,0.015977755,0.004905091,0.021447306,0.03298134,0.03504097,0.00468535,0.0,0.0,0.0,0.0,0.0,0.0,0.0,2
15,0.050581656,0.022035269,0.01644794,0.044526562,0.027335454,0.063305736,0.009773125,0.008883251,0.036660798,0.036680438,0.023988824,0.0073346137,0.015321969,0.016281266,0.028764168,0.09222013,0.036899745,0.04530747,0.035521068,0.029855212,0.040598124,0.029904662,0.01056425,0.015521081,0.09543348,0.038978577,0.031047879,0.009375442,0.012516971,0.022700995,0.023050087,0.038094435,0.016286664,0.015329723,0.018524757,0.047016576,0.019918783,0.0149674155,0.008585237,0.02754222,0.03884279,0.0073883296,0.0077821957,0.016693063,0.00750117,0.0236698,0.03779728,0.048853107,0.079801984,0.03276619,0.018897066,0.0063265734,0.013969683,0.03595727,0.07768487,0.0037178926,0.0,0.0,0.0,0.0,0.0,0.0,0.0,2
16,0.06726938,0.015630119,0.023451656,0.034611803,0.034378402,0.050210737,0.013691923,0.01069089,0.031206295,0.035908733,0.020556414,0.007522562,0.01615044,0.018328957,0.024420308,0.09824007,0.03743244,0.03444868,0.0236658,0.03620435,0.049405534,0.03565465,0.009917729,0.013908378,0.11083465,0.04037623,0.036873635,0.00845538,0.015645895,0.027949046,0.023244197,0.04054419,0.02420689,0.018497044,0.014161054,0.052768104,0.030917646,0.01236987,0.010454338,0.029282225,0.04033777,0.0083431415,0.009476644,0.015086772,0.009349277,0.022559505,0.046489406,0.057388153,0.06375965,0.029237231,0.026343709,0.008185792,0.017367108,0.029151507,0.09942408,0.0034081752,0.0,0.0,0.0,0.0,0.0,0.0,0.0,2
17,0.082488194,0.010282706,0.02350337,0.032196134,0.039580766,0.071046084,0.01413179,0.009907363,0.027891207,0.03576395,0.016273402,0.007920954,0.021973664,0.016323896,0.032325894,0.06489012,0.025841022,0.039383955,0.031449273,0.03850131,0.05656501,0.033423368,0.012496279,0.01310586,0.11045067,0.02870853,0.040117987,0.010734091,0.011814615,0.021252818,0.024679333,0.05701827,0.021063602,0.017629249,0.015466009,0.05730865,0.01735127,0.024824854,0.010434218,0.027303452,0.022404635,0.0070815706,0.013514461,0.020692103,0.008221898,0.021732641,0.037286356,0.052704822,0.058673795,0.028793754,0.028751124,0.0086267665,0.02053346,0.028465621,0.08659228,0.0040200124,0.0,0.0,0.0,0.0,0.0,0.0,0.0,2
18,0.06298884,0.011388138,0.03679469,0.031686056,0.038729,0.07347867,0.014010261,0.013963757,0.040914744,0.029390402,0.017732248,0.0069613657,0.020711984,0.013117319,0.035293512,0.080789655,0.025269696,0.02583091,0.026610605,0.030799968,0.061132427,0.030381862,0.01241157,0.01742862,0.10561659,0.04362417,0.03024977,0.011122923,0.014383347,0.029720107,0.021500403,0.062465563,0.01710496,0.018515479,0.017603213,0.0457359,0.023254825,0.023934951,0.016614817,0.03658825,0.023899063,0.010170583,0.0114075495,0.02070936,0.008819135,0.020352198,0.0450096,0.055176474,0.058196664,0.042625472,0.026992531,0.010810719,0.015500251,0.023803204,0.09721347,0.0050674626,0.0,0.0,0.0,0.0,0.0,0.0,0.0,2
19,0.062966056,0.016900126,0.035088263,0.030764623,0.02682875,0.068924315,0.009947262,0.014794479,0.03128878,0.023501627,0.013013366,0.008624014,0.023513295,0.00936661,0.022515086,0.10614296,0.024402607,0.022585955,0.035575397,0.025733136,0.07503139,0.028566152,0.013405971,0.014247041,0.067654416,0.038667783,0.02886106,0.010080325,0.013659957,0.027883084,0.024332922,0.06295534,0.026434984,0.017293047,0.014216703,0.04247476,0.019268436,0.025869844,0.0125715835,0.039383616,0.02841668,0.011285702,0.011028243,0.019629193,0.0101215355,0.031526808,0.05196707,0.06193036,0.04440105,0.03524027,0.023907507,0.0068266233,0.018660331,0.01836235,0.07484513,0.0076823025,0.0,0.0,0.0,0.0,0.0,0.0,0.0,2
20,0.06815625,0.009553195,0.03271523,0.026063908,0.026776958,0.059497673,0.014022456,0.018771572,0.024887308,0.033745706,0.018438332,0.00811339,0.018673029,0.01292505,0.023915837,0.091100544,0.020802524,0.023715606,0.045407537,0.02472635,0.06447693,0.02285551,0.0110289985,0.015947508,0.062879674,0.026610805,0.026634138,0.007587353,0.015886985,0.01888867,0.021084312,0.0555058,0.022075007,0.018521825,0.018770706,0.033621382,0.02481029,0.02125489,0.012686473,0.03769584,0.032096352,0.012944627,0.017020034,0.011811419,0.014744245,0.023703052,0.060666304,0.060849097,0.0356082,0.037251487,0.026239395,0.010842038,0.021243755,0.015151044,0.06923968,0.007777158,0.0,0.0,0.0,0.0,0.0,0.0,0.0,2
21,0.058124542,0.013098756,0.051644713,0.026308488,0.019908624,0.06699766,0.012783381,0.014150191,0.021071477,0.038353804,0.015873872,0.0108556235,0.017511914,0.012839313,0.01964378,0.07440428,0.03030473,0.028469957,0.038838487,0.022552436,0.06890026,0.021777503,0.012936191,0.01215183,0.054011952,0.022837278,0.029684836,0.00868344,0.013579311,0.0275934,0.024164964,0.057545613,0.016680328,0.015344824,0.013390194,0.044490885,0.021660049,0.02082245,0.0070678806,0.034522586,0.026017081,0.0104355095,0.009857756,0.008812775,0.011117086,0.022369016,0.051385954,0.05529225,0.0404206,0.032948673,0.02836467,0.009424392,0.029271062,0.015822485,0.06672445,0.007317003,0.0,0.0,0.0,0.0,0.0,0.0,0.0,2
22,0.04569872,0.011039462,0.035108525,0.021276357,0.024087481,0.060479563,0.010579851,0.011134709,0.027667051,0.02977609,0.012005171,0.009781864,0.016225638,0.014705642,0.014471825,0.0539987,0.028289804,0.018542245,0.028418183,0.023327587,0.06638968,0.020100439,0.008611211,0.01111051,0.050266527,0.019149747,0.025879283,0.009022085,0.009606364,0.021839127,0.019318722,0.055128798,0.017171036,0.014032631,0.0189829,0.027374854,0.017419698,0.018322503,0.008113387,0.026207972,0.028867722,0.01225546,0.009427269,0.010969853,0.011228984,0.025174195,0.031991903,0.064076565,0.029292833,0.026124587,0.026876083,0.009184136,0.022345675,0.022977345,0.05044771,0.0086109815,0.0,0.0,0.0,0.0,0.0,0.0,0.0,2
23,0.0439418,0.01086484,0.04565341,0.021643415,0.018673254,0.08095705,0.010969976,0.012143419,0.029469488,0.019223994,0.012789504,0.007206145,0.01838678,0.011605132,0.014021835,0.064716846,0.020052785,0.015471743,0.034704268,0.0214693,0.07304193,0.01623375,0.0097582685,0.009252009,0.060825802,0.018854361,0.016518015,0.008681414,0.008705048,0.013249586,0.01719967,0.044398267,0.019574633,0.011176251,0.012780761,0.033976164,0.019651078,0.027504541,0.013024655,0.028180849,0.02249874,0.009181901,0.008421587,0.01105528,0.009026888,0.02156144,0.023534613,0.06151507,0.030900983,0.024048189,0.024511779,0.0067736744,0.025842581,0.024478385,0.044608526,0.0075006443,0.0,0.0,0.0,0.0,0.0,0.0,0.0,2
24,0.047227856,0.015717162,0.029246137,0.02092967,0.021037325,0.06227904,0.008802386,0.01075606,0.030285869,0.022156572,0.015306571,0.0066543967,0.017529868,0.012672928,0.011679859,0.06419232,0.023808382,0.017865853,0.026317447,0.021530947,0.075234406,0.016967619,0.010728621,0.0076022237,0.05286696,0.025732666,0.02654535,0.007896172,0.009591861,0.0135488,0.017382784,0.03543254,0.018166635,0.009743288,0.014124385,0.02848152,0.0152813755,0.035513997,0.013746277,0.022575304,0.025742047,0.008013726,0.011497972,0.012289781,0.012631613,0.022421312,0.030007062,0.054087278,0.02594032,0.021886682,0.024298154,0.007472746,0.029318815,0.01915297,0.050962873,0.0066972068,0.0,0.0,0.0,0.0,0.0,0.0,0.0,2
25,0.031414047,0.012678423,0.04308745,0.014418829,0.018066077,0.06136537,0.007720686,0.006390806,0.03072968,0.014156093,0.012421196,0.00477675,0.014658808,0.01055689,0.010573639,0.05108354,0.024978539,0.014810718,0.032970957,0.020278325,0.07061962,0.023156224,0.009630132,0.008636947,0.057828818,0.022193361,0.019047376,0.006411242,0.009391506,0.012417109,0.018511545,0.0306884,0.019776199,0.014774412,0.014977126,0.027165994,0.011392588,0.025127038,0.010127041,0.034406397,0.021926828,0.006221332,0.010231749,0.01237816,0.0067462977,0.02600674,0.032706555,0.053397086,0.026407072,0.023419619,0.020676676,0.0063176015,0.023110267,0.020935128,0.038174886,0.0058441996,0.0,0.0,0.0,0.0,0.0,0.0,0.0,2
26,0.029969266,0.01029127,0.03129348,0.011951911,0.014891713,0.0456096,0.006175914,0.008078405,0.032049984,0.013705469,0.01981286,0.005656523,0.0103885615,0.012264611,0.006126733,0.042830594,0.026183074,0.013203961,0.023261705,0.01661422,0.08979449,0.01969032,0.0065234774,0.009357852,0.046600446,0.010268007,0.010426145,0.005423595,0.0099770585,0.016203148,0.013239071,0.03845905,0.021349242,0.016281225,0.010437047,0.016979191,0.0144426795,0.020703347,0.01369067,0.038329627,0.018997554,0.006508537,0.008486078,0.01579264,0.010920781,0.025500994,0.017868908,0.04949742,0.016129877,0.020859947,0.024227146,0.0039059215,0.02358344,0.012070799,0.01776462,0.006098229,0.0,0.0,0.0,0.0,0.0,0.0,0.0,2
27,0.041607402,0.009759573,0.030831227,0.013205759,0.01419261,0.041322764,0.004937165,0.008613933,0.021864621,0.019936927,0.012995159,0.005030507,0.008458762,0.011077008,0.0068345526,0.04011847,0.019943004,0.018719088,0.019632144,0.016025763,0.06318676,0.013127384,0.0063683656,0.0062813405,0.03240883,0.014497313,0.014713707,0.0033757526,0.009195039,0.017062707,0.013900968,0.029997187,0.013800358,0.017308425,0.009017867,0.014005176,0.0135292215,0.009095114,0.008302686,0.026702525,0.0211557,0.008062821,0.010059155,0.013717938,0.010339691,0.020727599,0.019330416,0.045730792,0.019260535,0.022585955,0.020246936,0.004415544,0.020237958,0.012177721,0.02114141,0.006460319,0.0,0.0,0.0,0.0,0.0,0.0,0.0,2
28,0.032046866,0.009421483,0.024643349,0.0069536106,0.01373383,0.052989125,0.0032614188,0.010371848,0.017504891,0.01916709,0.015228167,0.0048251012,0.011668681,0.008476609,0.0080784615,0.034978367,0.0135679515,0.013252969,0.01852086,0.011404606,0.04876378,0.012665776,0.0060489327,0.007835268,0.032404047,0.012944605,0.012131808,0.002809747,0.008114559,0.009600582,0.018275412,0.025918167,0.010320052,0.0055894624,0.00960084,0.011386145,0.017975643,0.009976734,0.0058111786,0.025714269,0.016159665,0.0042543225,0.0072797053,0.008227707,0.0057378206,0.008295216,0.017643133,0.043014325,0.0132834725,0.019229045,0.017133083,0.00429393,0.013217917,0.010068294,0.01724627,0.0038857353,0.0,0.0,0.0,0.0,0.0,0.0,0.0,2
29,0.023821162,0.0053105117,0.022146335,0.013073326,0.010626514,0.06056529,0.0037818407,0.011701461,0.017662758,0.0155831855,0.018265454,0.0054913764,0.007520481,0.0058725653,0.0056502908,0.024066843,0.013825339,0.013964771,0.01650371,0.012824615,0.05160816,0.011503629,0.0077571436,0.008559098,0.03364192,0.007867862,0.0120587405,0.0023027149,0.006611095,0.0050998023,0.01891741,0.027459797,0.0062631303,0.0066912496,0.0061282953,0.012735216,0.0065722787,0.008617484,0.004737292,0.015994897,0.019886235,0.0066816765,0.009819227,0.010243164,0.004953114,0.0074180122,0.012685121,0.03723925,0.015335921,0.008734316,0.01054607,0.0033265417,0.014819554,0.011914676,0.016341904,0.004236378,0.0,0.0,0.0,0.0,0.0,0.0,0.0,2
0,0.025035333,0.010262867,0.024281485,0.012989569,0.0036987865,0.00661866,0.0014365434,0.003552557,0.013719892,0.04582355,0.006441634,0.0030781284,0.00526071,0.0075333323,0.013554002,0.011590709,0.01312517,0.024144096,0.010817846,0.0070068785,0.06771922,0.018732263,0.0058339634,0.004457501,0.019949557,0.002422202,0.007852156,0.0035039312,0.0036252274,0.0028810669,0.009943109,0.0146032395,0.022426164,0.0079665445,0.0040966216,0.012896951,0.0061152945,0.022425413,0.007432101,0.010110069,0.0039041925,0.007223747,0.0063509988,0.020569336,0.013768385,0.0063885995,0.009765131,0.011040237,0.008867687,0.024746956,0.007910237,0.0033129437,0.0053967237,0.01672051,0.012662587,0.0025164862,0.0,0.0,0.0,0.0,0.0,0.0,0.0,3
1,0.027972572,0.010759465,0.019810818,0.014449318,0.0059913597,0.011021083,0.001947892,0.0065262113,0.008278178,0.03459277,0.007847866,0.004674637,0.005415714,0.012404899,0.022334574,0.012100927,0.01653911,0.016560744,0.026150078,0.019314675,0.13832842,0.023011593,0.007671502,0.011137826,0.030153874,0.0025006174,0.006983377,0.003369762,0.0050072223,0.004905026,0.01232633,0.018556407,0.019406363,0.0095566595,0.0075251292,0.021110483,0.011862907,0.029807925,0.008392142,0.010826868,0.0057580583,0.007014088,0.008432055,0.022772154,0.020268897,0.022665722,0.009276143,0.016794648,0.009610386,0.024824787,0.0058754347,0.00476143,0.006012113,0.029133568,0.00755779,0.0028708384,0.0,0.0,0.0,0.0,0.0,0.0,0.0,3
2,0.015477552,0.019399295,0.030032912,0.021913296,0.0071578724,0.014860071,0.0021407367,0.006495382,0.0074232053,0.037150834,0.007878173,0.0061528604,0.0049009714,0.015737813,0.017729597,0.013823251,0.016475298,0.035205927,0.013117956,0.017157422,0.0991971,0.030978667,0.006726805,0.0060389824,0.03993997,0.0032322921,0.008982723,0.004930977,0.0061133266,0.004304195,0.011095425,0.022865877,0.018718798,0.009503301,0.004405847,0.023458898,0.01227571,0.026429014,0.0076882388,0.011765615,0.008113564,0.00893862,0.010767911,0.0316059,0.019125588,0.017133899,0.0047308207,0.014903242,0.010944255,0.024272427,0.008699253,0.005224256,0.009555314,0.029190961,0.006798632,0.0028118012,0.0,0.0,0.0,0.0,0.0,0.0,0.0,3
3,0.016833002,0.015952587,0.023611875,0.017166637,0.010468636,0.016444258,0.0017992625,0.0077395816,0.010808316,0.04096346,0.007351383,0.0032500688,0.005870519,0.018533248,0.021021152,0.014515328,0.024760399,0.028326947,0.02087436,0.027447522,0.13491939,0.029838745,0.011574279,0.008599866,0.04241681,0.0034345447,0.012071049,0.004550116,0.006479362,0.0063505704,0.014201055,0.024762671,0.028933197,0.012483743,0.006975792,0.023410363,0.016919704,0.030160269,0.011990975,0.017035667,0.008542522,0.014876281,0.01022797,0.02717372,0.026251078,0.032370657,0.008043486,0.014125282,0.015192655,0.024425173,0.011084201,0.00399082,0.008007027,0.0330062,0.01233115,0.002826015,0.0,0.0,0.0,0.0,0.0,0.0,0.0,3
4,0.029181985,0.016006362,0.02122683,0.017444514,0.011383721,0.016726188,0.004526048,0.009414973,0.011220931,0.03864919,0.01031599,0.0032742303,0.008382129,0.026388137,0.033536542,0.026610976,0.026143335,0.03455355,0.026251024,0.02320997,0.19663289,0.035184104,0.009288629,0.007316623,0.035896387,0.005001611,0.013955401,0.0069573363,0.010457254,0.005126496,0.014728804,0.026436536,0.033858128,0.013623555,0.006537689,0.02674642,0.024045095,0.038288683,0.009943741,0.026656374,0.0073336377,0.012132887,0.009905,0.025839387,0.017171979,0.020490333,0.0143113,0.0120605035,0.009563137,0.026179934,0.010078604,0.0044639604,0.0087080775,0.029415175,0.011380822,0.0028795314,0.0,0.0,0.0,0.0,0.0,0.0,0.0,3
5,0.030324087,0.013586246,0.037001003,0.025090856,0.01833258,0.021725196,0.0061729276,0.0063201855,0.009280043,0.0538409,0.017271094,0.0055113877,0.00858502,0.035183262,0.030364297,0.031406254,0.026933229,0.035785843,0.038998503,0.017702898,0.2579449,0.028963454,0.011000887,0.011181457,0.055730265,0.005402064,0.012719927,0.006361649,0.009314531,0.009576136,0.015581718,0.028755032,0.030109158,0.012634591,0.008975119,0.023061559,0.022910528,0.021312647,0.011222544,0.03448308,0.0065279007,0.014696873,0.011006129,0.035186894,0.019168958,0.026383877,0.017263966,0.037705828,0.016865037,0.027899692,0.013387726,0.0044096364,0.011549962,0.038752597,0.014637591,0.0052607767,0.0,0.0,0.0,0.0,0.0,0.0,0.0,3
6,0.021627767,0.019105725,0.09007227,0.019953001,0.016286086,0.024806894,0.0071117505,0.0077138804,0.0086437585,0.058157504,0.017733747,0.005077505,0.008912135,0.032303944,0.02288301,0.030538803,0.029804919,0.05125062,0.03052297,0.025528627,0.15970531,0.037075568,0.010611688,0.01083675,0.06182831,0.0054856124,0.010948119,0.008483679,0.010002976,0.0097238105,0.018565744,0.028681256,0.030691061,0.016494993,0.009571952,0.03033463,0.023200558,0.025840936,0.014494284,0.032954838,0.007196193,0.010824269,0.01960747,0.053311273,0.023523517,0.025893357,0.015140896,0.0303018,0.020383852,0.031526633,0.014892275,0.005779717,0.008349928,0.02468046,0.022027863,0.0034852533,0.0,0.0,0.0,0.0,0.0,0.0,0.0,3
7,0.032509957,0.013318947,0.04668532,0.018934444,0.042236455,0.030107956,0.004649603,0.017150884,0.01111591,0.059048552,0.022877572,0.0054188278,0.012418347,0.050174985,0.028657904,0.041503888,0.030164426,0.04646948,0.040896174,0.023354497,0.2458856,0.03641348,0.01053096,0.008942465,0.05547499,0.004393997,0.00801076,0.008196981,0.013091119,0.009647253,0.020774148,0.023370981,0.034582026,0.017319625,0.011250118,0.035866998,0.02566455,0.031072363,0.01088926,0.02891938,0.008772099,0.010091657,0.013848111,0.041823193,0.02992988,0.020076852,0.013571151,0.031738266,0.01978,0.033643704,0.012014508,0.004601983,0.012490999,0.049175132,0.018707141,0.0036153311,0.0,0.0,0.0,0.0,0.0,0.0,0.0,3
8,0.056759764,0.025967337,0.03464312,0.031552672,0.031567182,0.03052538,0.007789085,0.017134063,0.01555485,0.05198437,0.024582548,0.0046547796,0.009830424,0.050230525,0.027688438,0.04284681,0.03027112,0.057967275,0.030271031,0.030500714,0.22452757,0.023405898,0.011420859,0.009056718,0.050346863,0.005763195,0.008962225,0.009837835,0.012147177,0.00995952,0.025279472,0.03613937,0.03545399,0.022925206,0.010131979,0.036137618,0.01825799,0.027120436,0.013431534,0.040124115,0.010833487,0.014205646,0.016310377,0.029587965,0.028952796,0.023488013,0.01055345,0.032596793,0.01222045,0.041815717,0.00882038,0.0065480196,0.012932559,0.046889555,0.014980906,0.0036040843,0.0,0.0,0.0,0.0,0.0,0.0,0.0,3
9,0.047548734,0.019309223,0.029418802,0.02841026,0.028579881,0.036474794,0.009750771,0.015647138,0.023458365,0.059494488,0.023667222,0.0075045186,0.011895861,0.043358255,0.027373023,0.039579425,0.03616865,0.07170607,0.036991898,0.03167625,0.350147,0.038939837,0.010419216,0.0073815123,0.06701876,0.0061940043,0.0110031925,0.009823193,0.0148109915,0.01364537,0.02392087,0.040583998,0.047661126,0.022911634,0.014315203,0.023127556,0.025217144,0.03139764,0.013665321,0.049851596,0.0202089,0.015366678,0.008333047,0.04080891,0.031828683,0.020859558,0.007732195,0.020143433,0.020862918,0.036048822,0.009611078,0.004058255,0.011670716,0.037464682,0.016994977,0.0035844382,0.0,0.0,0.0,0.0,0.0,0.0,0.0,3
10,0.043552853,0.019680604,0.039178945,0.050821196,0.034349017,0.04081951,0.011970343,0.019275337,0.03127419,0.04977699,0.027221497,0.008693963,0.019739738,0.04487917,0.031404827,0.056869335,0.03463649,0.05694864,0.043853264,0.032482695,0.2472707,0.03643035,0.010768856,0.015667489,0.08223076,0.0064673997,0.01278302,0.01108081,0.012652674,0.011039187,0.026598645,0.046981588,0.048091233,0.024614286,0.014557609,0.021919958,0.022495091,0.027156811,0.010445694,0.040004063,0.014736718,0.017656906,0.011233035,0.032073505,0.03435103,0.0172959,0.010042351,0.02219003,0.019391429,0.028736614,0.011100072,0.0061492478,0.011794896,0.03594852,0.025727376,0.0031044865,0.0,0.0,0.0,0.0,0.0,0.0,0.0,3
11,0.038371954,0.015798898,0.021422826,0.026272183,0.027716687,0.03149199,0.016524661,0.017974894,0.03202775,0.057715394,0.03394889,0.008398117,0.015887965,0.049147926,0.036244232,0.05728109,0.042868752,0.04974373,0.031991113,0.02771571,0.3539838,0.03894027,0.015435479,0.014160028,0.04258435,0.0069684596,0.013074132,0.010668168,0.011670754,0.007629408,0.020850776,0.035058044,0.03259894,0.02486743,0.018289255,0.030047376,0.028421799,0.032158043,0.012052824,0.040484972,0.021575794,0.0147845885,0.01297932,0.02913512,0.03474612,0.022961158,0.010588132,0.030089775,0.017256329,0.0310469,0.009152731,0.006374368,0.013248092,0.04591931,0.024398498,0.0031112607,0.0,0.0,0.0,0.0,0.0,0.0,0.0,3
12,0.056912083,0.014429335,0.022173574,0.02961353,0.03497687,0.02919933,0.017759858,0.01824484,0.03248225,0.05704775,0.029742327,0.012719632,0.011451359,0.04481094,0.03918835,0.04154834,0.038142122,0.052662235,0.047523554,0.02836499,0.40128383,0.035922058,0.013650599,0.023443084,0.051304415,0.008168699,0.012324424,0.01425349,0.010435704,0.010458794,0.02379588,0.04033578,0.04030414,0.030148052,0.016845904,0.028227115,0.024283791,0.035701167,0.015295413,0.041931115,0.03906344,0.01848173,0.014246356,0.025736654,0.024949614,0.024891201,0.0108427685,0.030289562,0.015294819,0.044465203,0.010229035,0.004559317,0.009419123,0.04476183,0.016442617,0.0020806575,0.0,0.0,0.0,0.0,0.0,0.0,0.0,3
13,0.060821872,0.012708643,0.036865644,0.026668172,0.037863012,0.028412564,0.020837564,0.015703877,0.03302928,0.055690803,0.02044212,0.0064551383,0.014857875,0.03976249,0.029122025,0.038795106,0.040867254,0.059547655,0.03996398,0.033390433,0.39846233,0.045233205,0.011468422,0.023209605,0.0349155,0.007904463,0.0072749555,0.011834337,0.010228554,0.009219255,0.023102134,0.03687956,0.056340463,0.02931133,0.016774306,0.02052829,0.019087035,0.038164925,0.015345113,0.040480543,0.02706653,0.01520058,0.011523564,0.027115176,0.015965587,0.01889436,0.008321332,0.02359199,0.013809002,0.042654373,0.009484869,0.0050853807,0.008193883,0.056362204,0.022109078,0.0021446291,0.0,0.0,0.0,0.0,0.0,0.0,0.0,3
14,0.066135794,0.011754129,0.04251598,0.0131936455,0.027862957,0.042985886,0.01666378,0.026385654,0.038174722,0.067367524,0.02679763,0.008372488,0.01778644,0.03060449,0.038806755,0.030988581,0.03476875,0.059334807,0.040714573,0.035403803,0.33120352,0.034254204,0.012754381,0.021256018,0.060158398,0.0073560523,0.008475231,0.0112127075,0.014514498,0.008926327,0.024863454,0.044594046,0.042916667,0.031017255,0.01235972,0.02338767,0.029379442,0.049195092,0.013909182,0.03857164,0.023406645,0.014404643,0.011354898,0.027636196,0.019012878,0.015231006,0.012547151,0.016402649,0.018119192,0.048979197,0.012580417,0.005408393,0.010672371,0.055787645,0.023298899,0.0021525412,0.0,0.0,0.0,0.0,0.0,0.0,0.0,3
15,0.068676054,0.014593535,0.028681032,0.01788215,0.03761177,0.058417607,0.017815918,0.01901884,0.02835002,0.061437763,0.031260554,0.010792738,0.019921217,0.04114849,0.043629773,0.029513717,0.03568568,0.038693152,0.03533119,0.033850007,0.3157966,0.035243466,0.0135589875,0.017400933,0.03578042,0.0072228014,0.00918529,0.011278187,0.013710344,0.008843712,0.02516731,0.04409571,0.025581919,0.02683392,0.018685222,0.021644227,0.019049836,0.04584325,0.01190634,0.04359768,0.02750665,0.013265827,0.008940018,0.021655431,0.021497434,0.008304595,0.016764745,0.019964335,0.019507261,0.0367611,0.015223892,0.004712782,0.010457989,0.03049497,0.016902037,0.00255211,0.0,0.0,0.0,0.0,0.0,0.0,0.0,3
16,0.054006387,0.011291292,0.05260841,0.016403543,0.027461717,0.061138827,0.017597185,0.027055398,0.032842267,0.049795542,0.03778781,0.006373186,0.018417679,0.03075325,0.03767221,0.03499045,0.025862925,0.043943763,0.035021804,0.047916673,0.3378403,0.024583274,0.008527655,0.0120017,0.024736537,0.009836709,0.008940996,0.01035597,0.014044435,0.0070710112,0.020785488,0.0535016,0.03683011,0.029249117,0.01615971,0.016911538,0.024884345,0.029724205,0.0132869845,0.062497992,0.03557043,0.012416645,0.009565673,0.017362202,0.023735736,0.01192477,0.017471228,0.019539902,0.02413748,0.03242241,0.01346858,0.0062202304,0.013115965,0.029222703,0.0156095615,0.00259016,0.0,0.0,0.0,0.0,0.0,0.0,0.0,3
17,0.06496932,0.01891766,0.029333407,0.018847309,0.023913061,0.04084457,0.026586842,0.0294312,0.025755532,0.07645398,0.020492915,0.0070274337,0.02828851,0.019750273,0.032863982,0.04129315,0.032299448,0.058079444,0.034585763,0.056619443,0.3885808,0.02304356,0.008946146,0.016864752,0.029561426,0.00831438,0.0070733405,0.011634025,0.015731398,0.008975199,0.028693628,0.05492701,0.041395925,0.02222828,0.01278351,0.01964978,0.026471766,0.030713025,0.012529728,0.061474495,0.022623517,0.011739355,0.008672842,0.017220354,0.030071877,0.0102944225,0.023880484,0.02505385,0.024807269,0.023027172,0.013386599,0.0060814177,0.01037786,0.04372868,0.028334567,0.0034484891,0.0,0.0,0.0,0.0,0.0,0.0,0.0,3
18,0.06485719,0.0120913135,0.042325687,0.012523169,0.022292415,0.06661594,0.017030858,0.026443908,0.03156567,0.06268245,0.026126014,0.00612987,0.020052718,0.019373557,0.042524382,0.034855198,0.031898085,0.044292204,0.045672882,0.04686652,0.32320768,0.036801964,0.011404188,0.011747616,0.039645273,0.0070911553,0.0066538174,0.0132663995,0.013501089,0.0076072575,0.022315037,0.056301143,0.05263138,0.017479822,0.014707941,0.015895354,0.020118168,0.02771956,0.012054571,0.06163882,0.036373723,0.00957569,0.009616787,0.01652879,0.02739973,0.010743205,0.01943602,0.03611274,0.028629031,0.031808607,0.011410021,0.0051633622,0.014580967,0.024505658,0.020659389,0.0026752108,0.0,0.0,0.0,0.0,0.0,0.0,0.0,3
19,0.054145716,0.012867605,0.046400566,0.012408213,0.019296264,0.03216009,0.016088894,0.021717515,0.02648695,0.06115485,0.02014917,0.008209518,0.020974763,0.014398171,0.027040815,0.032327868,0.02872284,0.044833716,0.030369442,0.039625525,0.30615124,0.028187718,0.008616273,0.0115552135,0.033379663,0.007518827,0.004946422,0.011545713,0.0102544,0.006719582,0.020328695,0.052709304,0.046649154,0.022758823,0.015184309,0.014593751,0.020810999,0.025323352,0.008593014,0.05008165,0.030141808,0.008445552,0.008946031,0.01424584,0.019265082,0.012167271,0.018447865,0.026763398,0.017596446,0.022036856,0.010750297,0.0042001638,0.013727233,0.022776807,0.016407186,0.0025875499,0.0,0.0,0.0,0.0,0.0,0.0,0.0,3
20,0.06119286,0.01459699,0.05058161,0.012255958,0.023129564,0.029537551,0.010799824,0.021625206,0.032392353,0.06463248,0.017126737,0.005810952,0.02519609,0.011054881,0.03415211,0.016144505,0.029672148,0.024614772,0.022217298,0.033743374,0.33413032,0.03722228,0.009940427,0.012089309,0.032942176,0.0055750497,0.0055052196,0.008569208,0.011828276,0.0063716397,0.02740118,0.051313367,0.047507904,0.015905082,0.0097183855,0.00956608,0.012039802,0.023386218,0.010085618,0.027579315,0.025116522,0.0043833926,0.0063232672,0.011878981,0.013746826,0.019316819,0.019630017,0.02353825,0.016659526,0.017953675,0.010442667,0.0046758535,0.008991401,0.031553507,0.023620838,0.003498517,0.0,0.0,0.0,0.0,0.0,0.0,0.0,3
21,0.06733144,0.009603116,0.051640246,0.010449526,0.014518853,0.039524283,0.012159496,0.015916849,0.025246212,0.07702431,0.01912879,0.0044976673,0.0267588,0.013166123,0.03481505,0.018207422,0.027669314,0.0203986,0.025513317,0.034147847,0.26832572,0.040710073,0.009031302,0.01271003,0.021927688,0.0052730683,0.0053762267,0.009325194,0.0144512765,0.0066899806,0.026009688,0.05074953,0.046065383,0.015928378,0.011262547,0.016348088,0.01447283,0.02283008,0.0094017405,0.026166726,0.026117025,0.0060787112,0.0065669823,0.009920231,0.012303204,0.01581947,0.023666691,0.019292472,0.018424846,0.016235357,0.007940088,0.0043464913,0.008532004,0.023813095,0.017705966,0.0038182647,0.0,0.0,0.0,0.0,0.0,0.0,0.0,3
22,0.06302445,0.0067988774,0.039806884,0.006963452,0.014875301,0.04292683,0.010781088,0.013168858,0.025076592,0.06181427,0.01817783,0.0051634545,0.019239107,0.0082949195,0.035412144,0.012157341,0.023938788,0.02499593,0.019745164,0.025059368,0.3144118,0.026079843,0.007678551,0.012384555,0.02138808,0.004333115,0.004832293,0.008819921,0.012475924,0.004934792,0.015137123,0.05326887,0.031034384,0.011825222,0.009760353,0.016697096,0.015352861,0.02448527,0.0075179483,0.028260374,0.027867787,0.003814959,0.008445676,0.010426918,0.014717582,0.01697951,0.01917052,0.015601958,0.01994663,0.017972188,0.0060436833,0.0028287482,0.009447846,0.022039335,0.011800321,0.0028892073,0.0,0.0,0.0,0.0,0.0,0.0,0.0,3
23,0.0393408,0.007094072,0.047882564,0.0052038934,0.011791669,0.048837155,0.01119996,0.012407997,0.03541014,0.09451891,0.017453507,0.0051107435,0.01718901,0.0076950337,0.0323463,0.013640299,0.018110814,0.02164347,0.018194677,0.024516467,0.41170058,0.027458414,0.007967769,0.012422724,0.047518805,0.0040753344,0.0044255517,0.005680559,0.009455214,0.0046568103,0.024065053,0.036192644,0.049364753,0.015227746,0.010463757,0.008884148,0.011715386,0.022471204,0.009331426,0.028011873,0.023084385,0.004332781,0.008796002,0.0069419774,0.01331948,0.011368978,0.019018982,0.021348896,0.010291314,0.013152785,0.006931393,0.0027891253,0.0054963874,0.014576843,0.011801522,0.002524697,0.0,0.0,0.0,0.0,0.0,0.0,0.0,3
24,0.039597873,0.00511679,0.05759525,0.0066600693,0.014847186,0.036803115,0.008303801,0.011052844,0.034831047,0.054664485,0.018511828,0.005978621,0.01981629,0.009502221,0.03753376,0.011369994,0.018888699,0.022770086,0.01979423,0.034582965,0.55070937,0.033908527,0.010653517,0.011225259,0.031685818,0.0032446205,0.0040181708,0.0046843463,0.008073327,0.006559751,0.018426614,0.035929084,0.04201489,0.010957382,0.009384083,0.009494459,0.010093737,0.026669266,0.007480849,0.028047234,0.029455088,0.0033253573,0.007618566,0.009219058,0.015409606,0.009591475,0.016423289,0.011629486,0.011973742,0.019150915,0.0060466537,0.002094061,0.006569847,0.015629705,0.015823254,0.0033270053,0.0,0.0,0.0,0.0,0.0,0.0,0.0,3
25,0.04702783,0.004513918,0.0344913,0.006494598,0.013446066,0.03789334,0.008448092,0.010161119,0.029326757,0.091525316,0.020166878,0.0035518843,0.019850118,0.010917927,0.039775245,0.009920309,0.022472048,0.011573303,0.015985334,0.022740323,0.2901427,0.026090363,0.0057270564,0.00912246,0.016863346,0.0048106415,0.0039537326,0.0054653236,0.010138925,0.005271034,0.016087718,0.036688462,0.020176614,0.014441795,0.0089868205,0.00943299,0.008462598,0.025134709,0.0055797826,0.02563362,0.029122274,0.0034317304,0.007257245,0.0064395927,0.018442322,0.009530544,0.020419667,0.006625979,0.018368358,0.014168837,0.004887887,0.0023205427,0.008982344,0.013977022,0.008035634,0.0022413034,0.0,0.0,0.0,0.0,0.0,0.0,0.0,3
26,0.04053709,0.0040158713,0.09167345,0.008035327,0.010110312,0.024673857,0.008559813,0.008638778,0.030159106,0.05376321,0.026288763,0.003510052,0.019957291,0.0066609625,0.029631598,0.012200353,0.020615065,0.010146482,0.014584348,0.019116884,0.3525489,0.020487148,0.009115865,0.011077327,0.02031971,0.003932521,0.0042731585,0.0058285478,0.008586163,0.0046454757,0.01824946,0.041690264,0.021388726,0.01297721,0.006265948,0.010086329,0.008986456,0.01506367,0.004511884,0.033001773,0.03736039,0.0029754108,0.005559197,0.006941154,0.019338412,0.01290465,0.021524142,0.0076261875,0.009697887,0.009636444,0.005260767,0.0029073632,0.008420544,0.010433412,0.006008227,0.0020541085,0.0,0.0,0.0,0.0,0.0,0.0,0.0,3
27,0.030204186,0.0061813043,0.06644105,0.0055861427,0.009655917,0.011924366,0.0069707367,0.0079526575,0.038070947,0.04347189,0.016547509,0.0027842645,0.019600555,0.005178675,0.03789786,0.01041907,0.020462018,0.015761204,0.010218719,0.016508752,0.2851021,0.0173707,0.009351137,0.007767666,0.02628343,0.0032851058,0.0033697153,0.0037991116,0.0062793638,0.004366648,0.017279437,0.03970036,0.021830864,0.010080884,0.005747327,0.01143552,0.008064106,0.017928071,0.004486981,0.027262308,0.02616754,0.0032793495,0.00650929,0.004244146,0.014501812,0.012798048,0.0170938,0.0065136948,0.0071226046,0.0072282013,0.00422257,0.0023460232,0.008338462,0.013233056,0.005305059,0.0017412503,0.0,0.0,0.0,0.0,0.0,0.0,0.0,3
28,0.02274909,0.004029895,0.0482515,0.006677308,0.010674578,0.011199603,0.0060138,0.006487065,0.035172425,0.05335928,0.011395702,0.0033355234,0.009363313,0.0032643352,0.0418008,0.008308044,0.01821652,0.0067674895,0.0078115375,0.0103755295,0.30126733,0.014481129,0.0064875097,0.00909643,0.016102923,0.0048580044,0.0037484018,0.0025878383,0.007143543,0.0030216253,0.010700594,0.033638574,0.0139928255,0.00772622,0.005058238,0.0068862657,0.0047955527,0.015677715,0.004066809,0.029363869,0.022939343,0.0030366317,0.0065356437,0.0046696616,0.010954528,0.006695217,0.011687348,0.0048382785,0.004881777,0.0063049304,0.002217833,0.0021124072,0.0076386714,0.008939316,0.0037932228,0.001809238,0.0,0.0,0.0,0.0,0.0,0.0,0.0,3
29,0.017316718,0.0048228544,0.021067336,0.0043023457,0.005073891,0.008010651,0.0029206777,0.0046519707,0.01979583,0.05049991,0.0063888817,0.0021393392,0.014141427,0.0025307003,0.030141266,0.0060711713,0.020617872,0.0059723235,0.007036973,0.01538651,0.2811064,0.015037266,0.0065317615,0.010581261,0.011458778,0.004376207,0.0032370356,0.0013200664,0.005821545,0.0027067407,0.0082645975,0.028455615,0.012901808,0.010471728,0.00476804,0.006343622,0.004327512,0.015498802,0.002516806,0.020777786,0.026263524,0.0027931833,0.004956098,0.00351002,0.008716536,0.0043886113,0.010246531,0.0054303217,0.00340479,0.005973185,0.0027590268,0.0012114544,0.0047763013,0.0072636707,0.004706865,0.0019194913,0.0,0.0,0.0,0.0,0.0,0.0,0.0,3
0,0.018745027,0.0032183835,0.011894643,0.0021156576,0.007954321,0.002572207,0.0007020716,0.0019917204,0.0048865913,0.009949061,0.002279831,0.0016636504,0.0011202018,0.0032115448,0.0049809674,0.0075397445,0.0058425134,0.0063961884,0.0059721824,0.004561629,0.007880444,0.0017002496,0.0016049651,0.0013830488,0.0033509983,0.003488379,0.0024645394,0.0005728033,0.0033064822,0.0020577905,0.008797155,0.0025428028,0.003089157,0.005991498,0.0019475777,0.0033565618,0.0016953126,0.002016109,0.00090910395,0.0012384333,0.0030269315,0.00073459087,0.001974083,0.0055487826,0.011336528,0.005116612,0.0037869352,0.008429747,0.004201692,0.0058645043,0.0026332121,0.0019563823,0.0014773745,0.00272392,0.006871009,0.0017869928,0.0,0.0,0.0,0.0,0.0,0.0,0.0,4
1,0.021728154,0.013243289,0.017945318,0.008861837,0.011355118,0.007510016,0.00499135,0.0036696221,0.0054893424,0.017521903,0.0018039492,0.0020775867,0.0024487604,0.0061938604,0.0065157493,0.011258332,0.008331314,0.008143457,0.008814395,0.008677048,0.010716048,0.0021031278,0.0015523828,0.00121844,0.0038015519,0.0045070993,0.0032089087,0.001639031,0.004868526,0.0023287311,0.007838723,0.0024342136,0.004599541,0.008104389,0.0017919997,0.0061607403,0.0018302397,0.0024445944,0.0009648226,0.0018114422,0.002756597,0.0018943384,0.002871831,0.007119778,0.024300972,0.0129125295,0.004765076,0.022216849,0.006835137,0.0048510563,0.003795562,0.0019120104,0.0017448061,0.0030479906,0.0029284207,0.0010608545,0.0,0.0,0.0,0.0,0.0,0.0,0.0,4
2,0.038624473,0.015113717,0.022620887,0.0053200983,0.010221138,0.005247968,0.002663836,0.0035109047,0.011785052,0.03406248,0.0021923052,0.0015576937,0.0035378954,0.0057325484,0.0071952883,0.017816434,0.011553372,0.010030434,0.008861952,0.0109264245,0.018555244,0.0024172592,0.001262015,0.0016553326,0.0036618637,0.004095934,0.0036921562,0.0014119999,0.0045698276,0.004644601,0.010624406,0.0042579286,0.003919307,0.008209398,0.0016381459,0.003919472,0.0019340082,0.0036727816,0.00092418113,0.0024607368,0.010997053,0.0028320616,0.003245485,0.00972975,0.031148158,0.017084012,0.003929022,0.02248372,0.0114589175,0.00611342,0.0038296704,0.0019742977,0.0021427418,0.0035897046,0.0059916223,0.0010577961,0.0,0.0,0.0,0.0,0.0,0.0,0.0,4
3,0.040824175,0.0107458085,0.011943487,0.004239641,0.020516917,0.0068529,0.00444304,0.0036192846,0.008556186,0.024721803,0.0033571618,0.002640996,0.0026556156,0.008556098,0.011134727,0.024096828,0.016075376,0.013382543,0.008372427,0.009734318,0.014826542,0.0022124434,0.00280252,0.0021533284,0.004177852,0.0042190966,0.0025805514,0.0017402061,0.004650521,0.0055683497,0.010614704,0.0046217055,0.0046290616,0.0057528326,0.0017189326,0.0039316393,0.0026656233,0.0040491126,0.00096996984,0.0023341272,0.014747215,0.0024828308,0.004307091,0.008633715,0.032732334,0.017354036,0.008687645,0.013702681,0.01418906,0.00749601,0.0048614442,0.0023354117,0.0013683396,0.0036687322,0.0053177476,0.0011397122,0.0,0.0,0.0,0.0,0.0,0.0,0.0,4
4,0.04808781,0.010311532,0.014559041,0.023681369,0.018498197,0.013126722,0.007566215,0.004808675,0.006951191,0.023108177,0.004225092,0.0041212053,0.004887185,0.012254669,0.013562752,0.017729372,0.013894666,0.017647123,0.009726002,0.00934097,0.01252812,0.0030351793,0.0035324923,0.002052611,0.0029422673,0.003162616,0.0030798425,0.0020393159,0.006009095,0.0032831996,0.011714051,0.004564424,0.0054409867,0.005940053,0.0027434428,0.0033216137,0.003945946,0.0040167035,0.00074275327,0.0017971045,0.008746918,0.004408176,0.0048553264,0.016880855,0.02786342,0.020208862,0.009604355,0.01916279,0.012112166,0.007336969,0.004269821,0.0023390583,0.0025538765,0.0028348255,0.0063715773,0.0015990366,0.0,0.0,0.0,0.0,0.0,0.0,0.0,4
5,0.017291782,0.008530829,0.0201647,0.00585524,0.005951768,0.0064627146,0.006577075,0.0050301934,0.0108190635,0.02140034,0.0052900123,0.0034319041,0.0046430323,0.010167787,0.0132037215,0.016397221,0.014020926,0.01892835,0.010512274,0.009557377,0.020544522,0.0031027212,0.003848981,0.0024296332,0.003967354,0.008137024,0.004462544,0.00258731,0.0057577887,0.0038058658,0.012830942,0.002423256,0.0048834654,0.008682829,0.0037849783,0.004205774,0.003068863,0.0034959884,0.00094071816,0.0022702499,0.012931012,0.004533709,0.0037772816,0.017882835,0.027588656,0.018317044,0.012129436,0.019805761,0.013976395,0.008320833,0.007991429,0.003092324,0.0045627444,0.0027087145,0.004551328,0.0013230493,0.0,0.0,0.0,0.0,0.0,0.0,0.0,4
6,0.042127278,0.018041318,0.011265571,0.011449605,0.013414229,0.010118652,0.005871932,0.0076045534,0.014482098,0.021647142,0.004739668,0.0021425688,0.003464012,0.012040756,0.0166904,0.019589987,0.014281954,0.022485785,0.015102898,0.010903838,0.023426682,0.0037164544,0.0035879852,0.0030945004,0.006676271,0.008646922,0.005718215,0.0018287625,0.0047591715,0.005103087,0.012785679,0.004594732,0.0062916465,0.008851513,0.0046276427,0.0052164523,0.0021124126,0.0025022167,0.0009204244,0.002486698,0.017362328,0.005099363,0.005755133,0.010365906,0.048434835,0.0159277,0.02181915,0.019423397,0.015467346,0.010026849,0.0045820796,0.00223289,0.0037706187,0.004635895,0.0042214696,0.001351469,0.0,0.0,0.0,0.0,0.0,0.0,0.0,4
7,0.05139337,0.0047697606,0.027207851,0.015118437,0.0075221304,0.015266265,0.005159059,0.007976621,0.01238556,0.016862668,0.0076831924,0.0032511235,0.0052146353,0.011501078,0.017243585,0.023684539,0.0128559675,0.0272681,0.019406246,0.011435826,0.03457174,0.004882133,0.004335785,0.0031139555,0.006900991,0.008278744,0.0046986863,0.0019556836,0.0038202319,0.005415092,0.0116725685,0.005326307,0.005443983,0.008640996,0.0046340106,0.0053273034,0.0022845299,0.0028410717,0.00098015,0.0023878494,0.014223639,0.005315136,0.00712153,0.014016054,0.06209085,0.026422897,0.023492184,0.021107418,0.018491345,0.010592303,0.0039278474,0.002385606,0.005875261,0.0044497116,0.0050255866,0.0013552058,0.0,0.0,0.0,0.0,0.0,0.0,0.0,4
8,0.047098115,0.01801877,0.029015504,0.01540397,0.00681428,0.006398926,0.0058299447,0.009899798,0.009803252,0.027720693,0.008848446,0.0030626848,0.0038759804,0.014727068,0.012929472,0.026091574,0.017515097,0.026068848,0.022266064,0.0091785025,0.032833707,0.0039331927,0.0033409027,0.0032936838,0.008074321,0.004775326,0.0060657677,0.0013375113,0.0039897724,0.0058989455,0.01144043,0.0073920805,0.0054664635,0.008768343,0.0044380235,0.004485305,0.0026065337,0.0029609543,0.0015509268,0.0034029724,0.01708169,0.0070301783,0.008105117,0.018580375,0.043633807,0.028337816,0.016809996,0.034556463,0.016570017,0.012360618,0.004436882,0.004859469,0.0036347646,0.0067811147,0.0035558764,0.0017420334,0.0,0.0,0.0,0.0,0.0,0.0,0.0,4
9,0.055322085,0.00790957,0.01569824,0.01340655,0.014704655,0.009658864,0.005114127,0.007618075,0.009714847,0.026300937,0.008907891,0.0037614298,0.0054110694,0.017605562,0.020726768,0.022055963,0.016038703,0.023863768,0.018827457,0.012753462,0.036272995,0.0045284135,0.0024673133,0.003519981,0.012843484,0.007571509,0.006188846,0.0012506479,0.003823891,0.007235415,0.011675673,0.008269651,0.004530611,0.00793077,0.0053507215,0.005156803,0.00322964,0.0028659638,0.0014793997,0.0058287024,0.0149057,0.0076876422,0.009832027,0.009095835,0.04419153,0.028718583,0.016159734,0.027674654,0.013861004,0.013245601,0.0039014115,0.0040296256,0.004963536,0.0056864065,0.003903254,0.0019208501,0.0,0.0,0.0,0.0,0.0,0.0,0.0,4
10,0.023561647,0.0050098505,0.032825917,0.026379494,0.008557754,0.008989456,0.00394156,0.0075669456,0.014456889,0.028636381,0.012861151,0.003576482,0.005248223,0.022764213,0.014610379,0.032791425,0.021343656,0.02841564,0.020716539,0.011839002,0.033772223,0.0053660376,0.0033641271,0.0041164523,0.015639586,0.011040558,0.0069099483,0.0010928098,0.0029308512,0.008335341,0.012363569,0.0069604986,0.0042722775,0.007825554,0.005660762,0.0067155506,0.004107383,0.0041262773,0.0011206771,0.00589875,0.02063823,0.007403635,0.008788143,0.023269897,0.046031088,0.031235754,0.019660933,0.03286903,0.014716802,0.0142400265,0.0065632807,0.0036772315,0.00614065,0.0062672324,0.004689697,0.002246824,0.0,0.0,0.0,0.0,0.0,0.0,0.0,4
11,0.02523086,0.007217263,0.023169838,0.031274103,0.009164216,0.004271677,0.005779642,0.0065846774,0.012397998,0.032462984,0.01196237,0.0020799711,0.0055771684,0.01613429,0.016768714,0.03998288,0.028800245,0.028461428,0.020149138,0.010951898,0.047080744,0.00455071,0.0042406917,0.003978781,0.017776432,0.010225966,0.006172606,0.00088442164,0.004667539,0.011769515,0.007816317,0.009236258,0.0046127923,0.008479984,0.006424553,0.005519831,0.0044216057,0.0045802696,0.0016670836,0.0056771375,0.016572732,0.012670288,0.007002348,0.022243384,0.07128669,0.054760408,0.025125137,0.043969534,0.014942533,0.013746848,0.0065877885,0.0036020991,0.0035419564,0.011534144,0.007726219,0.002577109,0.0,0.0,0.0,0.0,0.0,0.0,0.0,4
12,0.033920992,0.005430997,0.04870154,0.015222479,0.0118851885,0.008296769,0.0049866643,0.008019278,0.01198885,0.03076343,0.01187454,0.0034034245,0.0051518017,0.020511148,0.020507118,0.037338957,0.022253022,0.02883388,0.02326153,0.016396238,0.04928365,0.00443675,0.0041940766,0.0030598969,0.039921254,0.012280583,0.0071360823,0.00097048335,0.0051085786,0.011022354,0.0071416125,0.009935344,0.0065368908,0.009535752,0.0070305527,0.004306818,0.0033626517,0.0040712156,0.0017574757,0.0049793576,0.034558214,0.010500085,0.011707869,0.02084786,0.07398151,0.029668769,0.01925113,0.047160055,0.016456116,0.017783757,0.0059995065,0.003259666,0.004657698,0.0121256905,0.012073062,0.0026076208,0.0,0.0,0.0,0.0,0.0,0.0,0.0,4
13,0.032465126,0.006130682,0.05144134,0.025931342,0.009577863,0.006806211,0.008664873,0.006400487,0.009962738,0.037905652,0.011350703,0.0023266359,0.0029722834,0.01650429,0.02185806,0.053270474,0.024995396,0.030144662,0.023017023,0.014025079,0.04877746,0.005149529,0.0041567474,0.0026232284,0.020826856,0.007370182,0.0077832537,0.0010354643,0.0070004785,0.012128999,0.008125981,0.008283663,0.006491221,0.0074122082,0.006114649,0.00715758,0.0032672724,0.002936118,0.0012865993,0.00502546,0.021515599,0.007342463,0.0096266465,0.02047772,0.08697319,0.03861562,0.026780624,0.034581482,0.016634492,0.011717927,0.007123939,0.0033861334,0.0039451234,0.008189076,0.0069175353,0.0023171909,0.0,0.0,0.0,0.0,0.0,0.0,0.0,4
14,0.015885176,0.011479326,0.056488186,0.04028176,0.013296618,0.011673388,0.004134348,0.005885293,0.0117764855,0.038680356,0.010590668,0.0021068284,0.004071823,0.014893881,0.023640187,0.03117616,0.027812775,0.024878623,0.021804973,0.017290683,0.040813893,0.0049320804,0.0043020095,0.0016857341,0.023619916,0.007278129,0.007683867,0.0010452992,0.005741002,0.01196815,0.009066448,0.011488896,0.0061726626,0.0068558212,0.006714212,0.014805667,0.004779575,0.002801379,0.0011608414,0.0053850417,0.01652493,0.012144112,0.013051555,0.02489606,0.07110056,0.043648478,0.023059493,0.019989375,0.020874472,0.005706998,0.0073895175,0.003572704,0.0038534394,0.012232561,0.0060134674,0.002276375,0.0,0.0,0.0,0.0,0.0,0.0,0.0,4
15,0.026045429,0.008427018,0.077518694,0.02281051,0.008024126,0.0109125795,0.010569784,0.0072133434,0.010276788,0.0373695,0.013853689,0.0039001652,0.004916159,0.0152577935,0.02713227,0.0355063,0.03242195,0.026294284,0.017041653,0.023350412,0.038634915,0.0058395485,0.0050109457,0.002287075,0.027804056,0.006544508,0.007934923,0.0010740176,0.006926861,0.006501928,0.01041172,0.01133708,0.008846446,0.00962486,0.0068483795,0.015963998,0.0034752826,0.0026657518,0.0018629158,0.004773454,0.021827867,0.011418961,0.00749868,0.02422605,0.059969157,0.021401383,0.03713061,0.021872092,0.027936528,0.010572849,0.006293903,0.0034123983,0.004684162,0.015654197,0.010540081,0.0022958142,0.0,0.0,0.0,0.0,0.0,0.0,0.0,4
16,0.048441745,0.00590164,0.06111881,0.041489273,0.011637236,0.0038559826,0.012792993,0.008054246,0.014198425,0.03403669,0.013817124,0.0033964978,0.0042849598,0.015045198,0.02226705,0.03342214,0.030320005,0.030069249,0.017756939,0.0198902,0.042226117,0.006404916,0.0051292116,0.003287942,0.027765486,0.0052982997,0.007048089,0.0010213691,0.00824869,0.0065839756,0.010516164,0.010700031,0.014822309,0.010131195,0.0073383916,0.017201062,0.0039588683,0.0022919034,0.001767393,0.0058463872,0.02706846,0.008279523,0.008810505,0.019986643,0.07000435,0.029528104,0.036096904,0.027440313,0.024844725,0.0106287785,0.0057749823,0.00384687,0.0042168433,0.017008834,0.011198943,0.003008801,0.0,0.0,0.0,0.0,0.0,0.0,0.0,4
17,0.026464531,0.011368406,0.09190025,0.030302221,0.008645841,0.00993992,0.01280511,0.0077314144,0.008888069,0.044544224,0.013740272,0.0040555415,0.0058745,0.015414171,0.02649868,0.028228706,0.024385536,0.029303754,0.013568375,0.01868518,0.03165441,0.0063867555,0.005473966,0.00409323,0.040100995,0.0051767686,0.009783623,0.0017756827,0.009027312,0.007097734,0.009818058,0.012315566,0.014257724,0.009864723,0.006959773,0.01617334,0.0036288197,0.0035416018,0.0013943119,0.004836081,0.02776221,0.009485902,0.011158934,0.028675964,0.0924165,0.033054523,0.039403487,0.017234094,0.01681196,0.013761036,0.006969374,0.0049389917,0.004003783,0.01359503,0.016451187,0.0032527742,0.0,0.0,0.0,0.0,0.0,0.0,0.0,4
18,0.030060552,0.012877113,0.07699562,0.02153458,0.010425137,0.008138192,0.0068990313,0.008097108,0.014217979,0.031849794,0.013054354,0.0036002996,0.0028512566,0.01586046,0.022197593,0.032409206,0.018971672,0.02557456,0.015757753,0.016263828,0.02884291,0.005868313,0.0061016018,0.0050248937,0.029438294,0.006728222,0.0087168515,0.0011480772,0.0050013214,0.010238196,0.011598546,0.013600051,0.01238595,0.008915432,0.0058279797,0.017829286,0.0029196104,0.0035483625,0.0014928059,0.0050546955,0.019031657,0.008225705,0.011453552,0.020458909,0.05855908,0.028478546,0.030951116,0.028655516,0.014820677,0.012866635,0.0076139304,0.003505367,0.0032342745,0.012652737,0.013147395,0.003416964,0.0,0.0,0.0,0.0,0.0,0.0,0.0,4
19,0.024846736,0.0054405765,0.06767917,0.026947822,0.006520752,0.0038155986,0.00961611,0.008826585,0.013312523,0.0387805,0.015014697,0.0031091284,0.002880079,0.012983966,0.01884669,0.028164035,0.018527858,0.019841578,0.01604662,0.017036391,0.035039112,0.0053644907,0.006055851,0.0049953386,0.036512807,0.0058887047,0.0048346594,0.0013244749,0.007147338,0.009240113,0.0114606805,0.014322249,0.011962039,0.008583114,0.0064322357,0.014705938,0.002661092,0.002615556,0.0010812274,0.003910558,0.028985031,0.011300787,0.01140523,0.02056681,0.06765653,0.014601491,0.03341715,0.027884249,0.014060668,0.0087548755,0.004648513,0.0029573464,0.0017369839,0.014349837,0.009916574,0.0036095718,0.0,0.0,0.0,0.0,0.0,0.0,0.0,4
20,0.029452512,0.009613023,0.08908211,0.021746604,0.009805378,0.004026384,0.010392306,0.0067404034,0.012597638,0.03343218,0.0118448725,0.003190386,0.0031244562,0.010980224,0.0164672,0.027996574,0.018222617,0.021760248,0.011068975,0.01800571,0.038484626,0.005632538,0.0058267917,0.004050605,0.036469284,0.0051167523,0.005314498,0.0021295648,0.0036948237,0.011996292,0.014716669,0.012822132,0.011175135,0.0093293525,0.00631199,0.011985667,0.0041453447,0.002448583,0.0013727032,0.004506197,0.026223391,0.010142285,0.011492211,0.03022718,0.04418018,0.02267853,0.026493154,0.022395464,0.009605249,0.009954063,0.0031722458,0.0026141629,0.0029648738,0.011918599,0.011088521,0.002498853,0.0,0.0,0.0,0.0,0.0,0.0,0.0,4
21,0.013890034,0.008059097,0.0662743,0.01874527,0.010096673,0.0035014185,0.0070426203,0.0058011245,0.014840475,0.022796018,0.00898783,0.0025374857,0.0041987686,0.009542049,0.020167576,0.03141285,0.016786562,0.015795829,0.012593485,0.01782856,0.033790827,0.005234788,0.005014181,0.0030476989,0.036169145,0.006142175,0.0062721395,0.0023546806,0.004826224,0.007802502,0.01622406,0.012735944,0.009482087,0.008743055,0.005692225,0.012864663,0.0029713511,0.0015680338,0.0014099362,0.005816846,0.018757949,0.010013375,0.012731419,0.016573936,0.05104142,0.02270405,0.03644274,0.017963909,0.010595516,0.007926645,0.003267656,0.0029876812,0.0029292582,0.014618149,0.012062851,0.0021709765,0.0,0.0,0.0,0.0,0.0,0.0,0.0,4
22,0.014522639,0.006266343,0.043393128,0.0152624,0.00946716,0.0029373781,0.0072087497,0.0029876041,0.012670448,0.029700788,0.0075443205,0.003500291,0.0033280493,0.00733678,0.015277398,0.030936643,0.0108832875,0.017438285,0.008603602,0.016405927,0.030173037,0.0045418506,0.005052775,0.0032486648,0.025834395,0.0044162883,0.004832192,0.0011905745,0.0045302273,0.008540302,0.012686365,0.013332251,0.0070287264,0.008841085,0.0063785464,0.011933692,0.0027407387,0.0012566781,0.0011809147,0.0050784573,0.018148135,0.004579822,0.00943062,0.015206606,0.04586023,0.017697126,0.023902923,0.0154814925,0.010474805,0.0074333833,0.0027891148,0.0025587599,0.002044691,0.013526705,0.010510448,0.002358086,0.0,0.0,0.0,0.0,0.0,0.0,0.0,4
23,0.012957702,0.0071378034,0.037617773,0.017206075,0.010421171,0.0024384183,0.005532173,0.0029064855,0.012653123,0.027185408,0.0065434966,0.0030431508,0.0028494108,0.0083846785,0.018423498,0.025690626,0.011460517,0.015114993,0.0115590915,0.016066184,0.027972072,0.005218585,0.003834186,0.002057135,0.033276416,0.0070869406,0.004856945,0.0017698095,0.003212599,0.010679007,0.013070596,0.015597068,0.0088144755,0.009442878,0.0062716883,0.013961743,0.0042701005,0.00097304693,0.0012835334,0.006491375,0.015725145,0.0047604423,0.010767735,0.019435205,0.041330304,0.022900568,0.021351159,0.012953272,0.0073346,0.0063469033,0.0021332013,0.0034560028,0.0025754585,0.011413341,0.006281154,0.003055785,0.0,0.0,0.0,0.0,0.0,0.0,0.0,4
24,0.014440823,0.005608747,0.037070148,0.010898266,0.007793586,0.0025349625,0.005406619,0.0026991735,0.011341118,0.028629826,0.0071901996,0.0029232586,0.00291487,0.010569089,0.017055681,0.021484837,0.013664015,0.018285768,0.011174789,0.011074515,0.026925575,0.005917548,0.0040900377,0.0020746437,0.026459858,0.0044860803,0.003037272,0.0022785657,0.0047161523,0.0077464264,0.008818005,0.014987943,0.007811722,0.0096736355,0.008771672,0.016644817,0.0028334854,0.0012987921,0.0016824793,0.006866195,0.015367799,0.0059295353,0.010585916,0.021368984,0.052012514,0.017021185,0.01884981,0.009380979,0.0075097084,0.0091031045,0.0018645944,0.0027740893,0.0026308873,0.010694238,0.006884636,0.0032808355,0.0,0.0,0.0,0.0,0.0,0.0,0.0,4
25,0.013608782,0.00837774,0.025486642,0.008527268,0.007372957,0.0026024622,0.007103819,0.0037619595,0.010342113,0.026829772,0.0063852863,0.0023242799,0.0021674545,0.012706376,0.018742062,0.018498847,0.012248085,0.009096471,0.010745868,0.0126240775,0.020235972,0.005924831,0.0039451765,0.001959585,0.016778018,0.0047225286,0.00424234,0.0012973609,0.0046108216,0.00938703,0.012405077,0.010595522,0.004962452,0.010868147,0.008904977,0.01047315,0.0033977649,0.0010633087,0.0013543852,0.008634729,0.021739326,0.0042295544,0.007861954,0.012898776,0.03255653,0.016134217,0.015283235,0.009785157,0.008092123,0.004856959,0.0012931621,0.0021295957,0.0028532872,0.013791411,0.007817797,0.0035589498,0.0,0.0,0.0,0.0,0.0,0.0,0.0,4
26,0.014619561,0.0072847437,0.044033043,0.008644642,0.004357571,0.0027667827,0.0055002803,0.0033525452,0.008072953,0.016753582,0.0061585302,0.0017821161,0.002770647,0.0112251295,0.017421069,0.016810635,0.0068571917,0.0063728713,0.009229062,0.009170799,0.01897236,0.008149123,0.003961217,0.002317685,0.03170058,0.0029851142,0.0031965037,0.0014116438,0.0048854034,0.009290006,0.010234381,0.016428556,0.008019434,0.009125313,0.005931011,0.0073494157,0.004938201,0.000942726,0.0014511162,0.0071413214,0.02000634,0.00436133,0.004799899,0.018285224,0.035145745,0.014884531,0.020955479,0.008995066,0.0047282367,0.00492023,0.0013907016,0.002076901,0.002672006,0.017859038,0.006463285,0.0029832206,0.0,0.0,0.0,0.0,0.0,0.0,0.0,4
27,0.013429173,0.0039606136,0.025275828,0.012046575,0.0055938275,0.0041778865,0.004474087,0.0022455666,0.008342328,0.016454171,0.006231718,0.0027214254,0.0022910726,0.008126057,0.01660581,0.019851813,0.011221825,0.0077143484,0.009957197,0.0066161957,0.02258507,0.0069781374,0.0037471843,0.0021275857,0.024853377,0.0050834515,0.0032762527,0.0014509284,0.0036718724,0.007973151,0.007915971,0.01748099,0.009401184,0.00697355,0.005948315,0.0061877114,0.003523572,0.0015857868,0.0014965781,0.005320992,0.016843554,0.0031063603,0.0065576253,0.016060641,0.03238002,0.019035213,0.013585433,0.00855633,0.0060357973,0.005613714,0.0013835769,0.0017111499,0.0022399176,0.017629242,0.005726327,0.002104789,0.0,0.0,0.0,0.0,0.0,0.0,0.0,4
28,0.0076447334,0.00396536,0.018755037,0.0089305565,0.006188961,0.0046152896,0.0035695562,0.0026783694,0.008527206,0.021489918,0.008114148,0.0021183875,0.0017507541,0.0072864755,0.017245965,0.016871167,0.008371107,0.0041124374,0.010799325,0.0063680857,0.01567902,0.006095151,0.0034267425,0.001692583,0.022257924,0.0028487209,0.0036801414,0.00079453917,0.005581441,0.007650413,0.008378934,0.018259779,0.006996088,0.0065155486,0.0046605114,0.0060522705,0.00552936,0.0017380893,0.0011521952,0.0065600034,0.012649792,0.0036156506,0.004718393,0.007901424,0.024646686,0.018218804,0.013143464,0.009559255,0.00306933,0.0026736297,0.0012998147,0.001409004,0.0023152318,0.008153221,0.006321913,0.0015757658,0.0,0.0,0.0,0.0,0.0,0.0,0.0,4
29,0.0062280586,0.0044077006,0.020803481,0.005897467,0.004138177,0.0022101637,0.0030804235,0.0020902774,0.006406186,0.025740199,0.005452255,0.0016967492,0.0017828735,0.004713624,0.010947219,0.0121738305,0.008853408,0.0043671248,0.011366753,0.007656571,0.022602573,0.0052868756,0.002650012,0.0017301854,0.013194038,0.002977432,0.0030241928,0.0010564107,0.004420925,0.0056492016,0.005373061,0.015847415,0.0060172006,0.0058171335,0.005046785,0.010081651,0.0032108724,0.0012003462,0.0008140377,0.005402872,0.02000087,0.0030069032,0.0039458014,0.011866223,0.044831187,0.010277234,0.010917443,0.007402321,0.003528307,0.0031936858,0.0010117749,0.0010619503,0.0019756944,0.0053804005,0.00332908,0.001192359,0.0,0.0,0.0,0.0,0.0,0.0,0.0,4
0,0.02286928,0.0036364174,0.013283678,0.00901205,0.0041912845,0.009974924,0.0042498433,0.0037480418,0.015371238,0.041638404,0.006066855,0.0042626695,0.011795961,0.015168661,0.014393407,0.015146086,0.008808958,0.034787055,0.010324994,0.009932664,0.036338132,0.009895043,0.00923567,0.005625527,0.028587142,0.0035544587,0.00727398,0.001322261,0.0025905226,0.0029994946,0.01391572,0.005559416,0.015234492,0.0059223035,0.006143629,0.017870024,0.009701407,0.004235064,0.002628364,0.0068261917,0.030244507,0.0056542256,0.0034514768,0.014400373,0.016828088,0.012086032,0.015628284,0.0055691786,0.013831688,0.008106229,0.0065360973,0.0044027795,0.004029185,0.009016787,0.008734383,0.0013596953,0.0,0.0,0.0,0.0,0.0,0.0,0.0,5
1,0.018777581,0.003419033,0.021021888,0.0072966414,0.0059178635,0.013271332,0.0037871145,0.004148673,0.011950961,0.032521162,0.014076562,0.005937219,0.016959101,0.017539036,0.018901497,0.017253717,0.0077659446,0.015535951,0.012446571,0.010934214,0.04478814,0.010828072,0.0114902025,0.005696743,0.022483211,0.007006388,0.006703321,0.001965731,0.0045074727,0.0032516199,0.013752084,0.005790055,0.01917254,0.0060156584,0.008679634,0.019119563,0.011810626,0.006230812,0.0037029744,0.009568268,0.02559884,0.010356842,0.0061585396,0.03207116,0.02662701,0.016806152,0.016128354,0.015441428,0.017594723,0.008779199,0.013572397,0.0047057,0.006311358,0.013978724,0.013659147,0.0014299611,0.0,0.0,0.0,0.0,0.0,0.0,0.0,5
2,0.019688886,0.0033365737,0.02006256,0.008525208,0.0057238736,0.01732002,0.0037498546,0.005729875,0.019025836,0.049471002,0.010660984,0.009399572,0.017709047,0.026009167,0.018625792,0.01967365,0.011821106,0.021858525,0.009896838,0.014389592,0.053853434,0.008793235,0.013916134,0.008080265,0.0520349,0.007919013,0.0065647983,0.0016681418,0.00603349,0.0036087725,0.016882438,0.0069518625,0.017584315,0.006741896,0.008227438,0.021943545,0.011549051,0.00452203,0.0034429198,0.010971562,0.023121713,0.008036825,0.006124541,0.03106368,0.031182913,0.015505393,0.01580802,0.014683778,0.013098398,0.011637616,0.011549822,0.0067037977,0.006595027,0.008146967,0.013637896,0.0014573976,0.0,0.0,0.0,0.0,0.0,0.0,0.0,5
3,0.021930242,0.0043529905,0.021281095,0.012136819,0.00756498,0.018666599,0.0035614928,0.0087643275,0.02049089,0.05881453,0.01054743,0.009294124,0.019936524,0.024666391,0.020046508,0.013806915,0.013316111,0.026804648,0.011660652,0.012569435,0.05338757,0.008344691,0.010666281,0.0076475088,0.059989255,0.012206524,0.007201606,0.0018836249,0.0065233917,0.0032156038,0.025740238,0.008716569,0.015736435,0.0074527115,0.007388663,0.027250677,0.009208402,0.005557872,0.003720055,0.010198246,0.043830212,0.009278921,0.004596958,0.032106113,0.030708043,0.013303825,0.010474032,0.015337561,0.030742927,0.012920281,0.00946236,0.0069184205,0.0069494694,0.01300688,0.021289883,0.0018839784,0.0,0.0,0.0,0.0,0.0,0.0,0.0,5
4,0.014645389,0.004931777,0.03678417,0.013221685,0.011319338,0.015819836,0.0054503586,0.01138974,0.023455838,0.061313655,0.012632033,0.012901779,0.029742062,0.03373356,0.029140508,0.028768245,0.016753754,0.038659025,0.017264912,0.011344159,0.053832334,0.009010565,0.010518336,0.009381552,0.04867429,0.0125645865,0.010053499,0.0020036397,0.009052502,0.004002773,0.020622456,0.009245751,0.0212321,0.009979701,0.0073634195,0.043523915,0.010899886,0.010289701,0.0039933785,0.018764276,0.05732802,0.013860013,0.0055750273,0.039707128,0.040897444,0.014085767,0.013193673,0.009057527,0.018769443,0.014186866,0.009959438,0.0046612984,0.0063160136,0.017336743,0.023991339,0.0014608927,0.0,0.0,0.0,0.0,0.0,0.0,0.0,5
5,0.02179394,0.006818876,0.034828868,0.017052129,0.010071292,0.01653709,0.004851133,0.014007595,0.033222675,0.078350686,0.027395163,0.013661947,0.032848213,0.031368375,0.030647239,0.03831294,0.012969912,0.048387565,0.032516997,0.015918583,0.071500026,0.00976401,0.012719659,0.011408078,0.045380443,0.008215849,0.009722027,0.002087093,0.010326349,0.0038825765,0.015867874,0.008483368,0.016816545,0.006488966,0.008853027,0.04468283,0.01197344,0.01196068,0.0031592885,0.016713977,0.036314066,0.01063112,0.0066555673,0.03805594,0.049576186,0.012519316,0.018356727,0.014887792,0.026719881,0.01567747,0.011284901,0.006226056,0.0063156094,0.01722106,0.02443691,0.0017072856,0.0,0.0,0.0,0.0,0.0,0.0,0.0,5
6,0.022336662,0.0068010427,0.027404621,0.017899983,0.012657129,0.016716963,0.005949843,0.017705092,0.03057199,0.055703998,0.022950001,0.010579787,0.030030394,0.029751634,0.029046265,0.029313864,0.017400678,0.04998632,0.0346234,0.017101757,0.062122174,0.011477942,0.015578483,0.014804156,0.059914336,0.0155479675,0.010156793,0.0022902777,0.011401116,0.0038963077,0.015464661,0.007159491,0.028105764,0.008809333,0.011885848,0.04849631,0.012139331,0.012438056,0.0041449443,0.0127678355,0.07093567,0.010401382,0.007204717,0.040251996,0.04471153,0.019915879,0.025980713,0.013485609,0.0325908,0.020577254,0.012320111,0.0054668747,0.008273495,0.020244254,0.029189873,0.0017572317,0.0,0.0,0.0,0.0,0.0,0.0,0.0,5
7,0.02459466,0.006260184,0.034024123,0.021072807,0.010184258,0.019644111,0.009278617,0.012258977,0.02398418,0.06795744,0.032095518,0.017797232,0.050056767,0.030899176,0.028570926,0.029454807,0.018766247,0.06250275,0.02703842,0.011928166,0.056418855,0.012721507,0.013992548,0.015007081,0.0785344,0.0104376925,0.010495596,0.0022316345,0.010105163,0.0035730863,0.016859517,0.0074991137,0.018769402,0.015320831,0.010046812,0.05356563,0.014141314,0.019304333,0.00547608,0.0106185,0.06387562,0.012992803,0.010704451,0.051514678,0.050708394,0.011344522,0.018295743,0.015499284,0.03776542,0.018510664,0.015665932,0.0048854863,0.011588168,0.02168232,0.030536475,0.0018768813,0.0,0.0,0.0,0.0,0.0,0.0,0.0,5
8,0.01958018,0.006003621,0.046883754,0.014894365,0.010039562,0.025662877,0.00934226,0.016704904,0.033243265,0.06096819,0.019810852,0.012540082,0.04361656,0.03536698,0.034920685,0.047485065,0.017842555,0.05926871,0.029659538,0.014486368,0.058893446,0.011294382,0.015766699,0.01650846,0.09182981,0.012487631,0.008259013,0.0020628264,0.008123964,0.005708632,0.020999052,0.009617557,0.022527622,0.011692153,0.011376628,0.048922792,0.01141864,0.013623877,0.0059232125,0.012155421,0.049955662,0.023169318,0.008696945,0.05411729,0.056860857,0.01786871,0.021762516,0.021005051,0.025240976,0.018735737,0.014736693,0.004666783,0.0115927365,0.023519143,0.017949956,0.0021746813,0.0,0.0,0.0,0.0,0.0,0.0,0.0,5
9,0.023480559,0.007800617,0.03727074,0.00980871,0.012059406,0.027085828,0.012512543,0.017198587,0.035869543,0.07331198,0.034871086,0.017650632,0.04060801,0.036365423,0.02856869,0.041233707,0.019528322,0.057014067,0.026419094,0.012881996,0.065345965,0.01055709,0.018374478,0.013918412,0.06979892,0.010903949,0.0074175657,0.0030166924,0.007243643,0.007375629,0.01617256,0.009539158,0.026164807,0.01329918,0.010826851,0.049790606,0.0092124995,0.01589274,0.007928552,0.012267837,0.07857324,0.01175208,0.011736278,0.04424895,0.04599762,0.021192724,0.01536315,0.02085841,0.02803024,0.020246385,0.016533703,0.0049772016,0.011659845,0.027296623,0.026996471,0.001944472,0.0,0.0,0.0,0.0,0.0,0.0,0.0,5
10,0.025374696,0.008047253,0.05662085,0.017876346,0.0060634417,0.021029256,0.010681086,0.019529147,0.033105493,0.045501214,0.03114434,0.016499009,0.05687165,0.04921392,0.034632493,0.058745485,0.021746298,0.061040234,0.028080089,0.015798872,0.07596414,0.010854009,0.01884214,0.014889081,0.07458601,0.0117814895,0.010752301,0.0024633745,0.010427215,0.005787964,0.016725663,0.011004467,0.027552748,0.011849635,0.00967489,0.05297325,0.013250548,0.017204624,0.0067850435,0.011661838,0.060346484,0.020895008,0.01044054,0.04390223,0.05290285,0.01990797,0.027027108,0.027044633,0.03161963,0.018309152,0.019580854,0.004887561,0.013928527,0.021310596,0.023716444,0.0020078472,0.0,0.0,0.0,0.0,0.0,0.0,0.0,5
11,0.030103318,0.0063654487,0.051602725,0.01782073,0.006650314,0.018479848,0.011561982,0.021340558,0.037230335,0.06968029,0.0431535,0.013772258,0.06093516,0.042721808,0.04160735,0.05191434,0.021508366,0.07089099,0.037818633,0.015248656,0.058452,0.014376831,0.020357732,0.018223379,0.077812314,0.016097024,0.010299796,0.002382644,0.008306734,0.0057265633,0.016539771,0.014111372,0.028196117,0.008660466,0.012589233,0.04734278,0.01000635,0.024855439,0.007973699,0.012145163,0.08513124,0.018188002,0.010864044,0.0718684,0.09472296,0.018188365,0.024775079,0.028397463,0.026758382,0.020988883,0.019889258,0.007885169,0.011025436,0.03660073,0.028665222,0.003009317,0.0,0.0,0.0,0.0,0.0,0.0,0.0,5
12,0.026928175,0.007940832,0.044310648,0.014931841,0.006024657,0.016256649,0.012673668,0.019345958,0.04362357,0.07815267,0.03657375,0.01549805,0.07494485,0.046995822,0.038417116,0.0322141,0.02480385,0.06574491,0.041821998,0.013093052,0.081017256,0.020208975,0.017939841,0.012892554,0.05801501,0.016712504,0.010299685,0.0024884874,0.006612498,0.006144613,0.022611612,0.011724156,0.022592714,0.010545331,0.010873006,0.04601371,0.011891695,0.029328985,0.008568588,0.013557309,0.06507811,0.02442148,0.01322386,0.03971416,0.04386075,0.02776538,0.034140844,0.022183942,0.023104532,0.019630335,0.024258183,0.009675399,0.0137540195,0.03901507,0.030063549,0.0038726225,0.0,0.0,0.0,0.0,0.0,0.0,0.0,5
13,0.037931584,0.006593539,0.05022229,0.021337913,0.0047731833,0.018647704,0.014363687,0.022133142,0.04504301,0.07889,0.038546227,0.012349858,0.08125926,0.053060696,0.037663683,0.032022107,0.031534567,0.049099043,0.0430466,0.017317295,0.067227595,0.019405983,0.025553962,0.012428413,0.069856696,0.013948891,0.013963826,0.002638696,0.00897962,0.007817498,0.028061852,0.008690529,0.019994378,0.006747359,0.014810144,0.027618058,0.0108997,0.026379516,0.008593484,0.013587496,0.06458115,0.019176925,0.013310181,0.04062542,0.039117895,0.022069627,0.040439397,0.021043215,0.014291204,0.016303694,0.020252014,0.0074505783,0.011772429,0.051132936,0.028314017,0.0040115598,0.0,0.0,0.0,0.0,0.0,0.0,0.0,5
14,0.03587954,0.0067124497,0.039945383,0.015553455,0.0069742394,0.010296908,0.014460166,0.021186305,0.044067077,0.06578963,0.030414289,0.020681256,0.061424088,0.051037744,0.036204245,0.033671517,0.028253997,0.05115786,0.03299097,0.0170127,0.08714234,0.018260479,0.028477417,0.012712763,0.07246185,0.015550662,0.013543865,0.002403259,0.0075084823,0.0069711558,0.032488734,0.0110775335,0.016355924,0.006029845,0.017130544,0.028634131,0.012719429,0.034003522,0.010332294,0.016312765,0.050824676,0.019075468,0.015852222,0.054651763,0.048678987,0.026961027,0.046364877,0.016097918,0.011224468,0.013817778,0.024236513,0.010314412,0.009186656,0.062718906,0.026419878,0.003622368,0.0,0.0,0.0,0.0,0.0,0.0,0.0,5
15,0.035774086,0.007655154,0.03654728,0.02156048,0.0066995285,0.011682743,0.011663,0.023545844,0.0348387,0.06854531,0.034522705,0.013083014,0.074221484,0.053764634,0.07225244,0.027575014,0.042625498,0.052823164,0.03673756,0.01801647,0.07341485,0.023456492,0.022095341,0.01009142,0.074044906,0.013088492,0.009423138,0.0023098842,0.011098605,0.008034927,0.03581046,0.013168447,0.012960228,0.007879427,0.014252142,0.033540033,0.0082875565,0.04113825,0.0089292,0.014401154,0.045652885,0.026737094,0.017022379,0.08152616,0.048845854,0.025727004,0.055781562,0.015439832,0.0108243665,0.0095550325,0.023833307,0.008353908,0.009478086,0.06036488,0.03615687,0.002638452,0.0,0.0,0.0,0.0,0.0,0.0,0.0,5
16,0.035230443,0.005469316,0.045101628,0.0153352525,0.0061951107,0.010313893,0.014427836,0.018606115,0.04038867,0.049534403,0.039149728,0.012410475,0.060514472,0.043827567,0.07385254,0.035337392,0.039775148,0.07011861,0.04744071,0.01875392,0.07284633,0.020016687,0.028586265,0.007829845,0.066590145,0.011052457,0.011784878,0.002369653,0.009051101,0.008282316,0.028433513,0.012658152,0.016623802,0.009613233,0.011485688,0.037524406,0.008451207,0.035334423,0.014548161,0.0096269315,0.06711688,0.018763905,0.010710882,0.06391008,0.064450696,0.027203277,0.0598551,0.01673842,0.00895636,0.008386247,0.02547958,0.008960369,0.010934965,0.048922457,0.044299375,0.0021994375,0.0,0.0,0.0,0.0,0.0,0.0,0.0,5
17,0.03841346,0.0056914752,0.037659995,0.014412646,0.007307167,0.013604225,0.008904775,0.017368803,0.030388545,0.040729444,0.040895414,0.01893542,0.050922,0.05845115,0.07491521,0.0441167,0.03364329,0.050967626,0.04613701,0.02208775,0.07632977,0.022861466,0.021285377,0.008873076,0.06359077,0.013157676,0.014680325,0.0017239403,0.009514453,0.010240114,0.027839106,0.013734175,0.013763195,0.012258959,0.013377365,0.04536154,0.0068915943,0.029330846,0.013002798,0.011167189,0.052997638,0.018639462,0.008603875,0.05099808,0.05763564,0.02649903,0.0482117,0.023661083,0.008470972,0.013546979,0.03163367,0.010162137,0.011821592,0.047738932,0.05238634,0.0035138314,0.0,0.0,0.0,0.0,0.0,0.0,0.0,5
18,0.03770379,0.0051133092,0.026946396,0.0121045895,0.006711045,0.014454313,0.009852671,0.018951273,0.022766018,0.03749674,0.044640753,0.012414487,0.04125372,0.046438374,0.06443817,0.04960534,0.030505117,0.040435567,0.04364879,0.020488791,0.06312011,0.025209088,0.020101273,0.010547673,0.056840867,0.019003378,0.0136174625,0.0016491513,0.00802016,0.007960393,0.03223302,0.017553095,0.012839957,0.012755805,0.013797144,0.036557414,0.008518452,0.036151607,0.014600153,0.011314717,0.06699189,0.021422373,0.009671943,0.090399876,0.05955342,0.021806428,0.039129857,0.019545343,0.006993298,0.010217024,0.028728824,0.0062213787,0.008695188,0.034702886,0.044354208,0.0046789474,0.0,0.0,0.0,0.0,0.0,0.0,0.0,5
19,0.035862025,0.0058341706,0.023292106,0.014035568,0.008127747,0.0123060085,0.010432598,0.015194949,0.027155772,0.029446177,0.029361382,0.015405299,0.043186802,0.034474622,0.06634118,0.05103822,0.032647517,0.043088093,0.04510766,0.0148894545,0.03803452,0.025707953,0.020269616,0.010226058,0.047807056,0.012024208,0.0138893975,0.0015314744,0.008243783,0.0070676506,0.03702505,0.016945323,0.013986708,0.009935449,0.009336953,0.04285087,0.010669984,0.03358626,0.010400057,0.010113292,0.06685567,0.021378415,0.013818209,0.046552796,0.040991522,0.030771954,0.05041592,0.027086956,0.005858935,0.010323566,0.025166208,0.004846777,0.010351412,0.037229493,0.035553712,0.005656962,0.0,0.0,0.0,0.0,0.0,0.0,0.0,5
