,EEG.Fp1,EEG.Fz,EEG.F3,EEG.F7,EEG.FT9,EEG.FC5,EEG.FC1,EEG.C3,EEG.T7,EEG.TP9,EEG.CP5,EEG.CP1,EEG.Pz,EEG.P3,EEG.P7,EEG.O1,EEG.Oz,EEG.O2,EEG.P4,EEG.P8,EEG.TP10,EEG.CP6,EEG.CP2,EEG.C4,EEG.T8,EEG.FT10,EEG.FC6,EEG.FC2,EEG.F4,EEG.F8,EEG.Fp2,EEG.AF7,EEG.AF3,EEG.AFz,EEG.F1,EEG.F5,EEG.FT7,EEG.FC3,EEG.C1,EEG.C5,EEG.TP7,EEG.CP3,EEG.P1,EEG.P5,EEG.PO7,EEG.PO3,EEG.POz,EEG.PO4,EEG.PO8,EEG.P6,EEG.P2,EEG.CPz,EEG.CP4,EEG.TP8,EEG.C6,EEG.C2,EEG.FC4,EEG.FT8,EEG.F6,EEG.AF8,EEG.AF4,EEG.F2,EEG.FCz,number
0,0.02322952,0.0068461993,0.013219521,0.009537943,0.006753517,0.009218404,0.0026153096,0.0048574014,0.015130274,0.0350991,0.0068081263,0.0028440312,0.0070372447,0.009164712,0.009814383,0.020692172,0.01448381,0.025445549,0.013856848,0.013834339,0.03474882,0.008822416,0.0062672156,0.0071028518,0.018741097,0.00733994,0.008237663,0.0034737438,0.006316152,0.005517788,0.013356316,0.011845985,0.017608553,0.011525549,0.003233299,0.012258891,0.010207851,0.012104555,0.0043611345,0.008695299,0.008952068,0.0045711766,0.0057569426,0.009780306,0.011470518,0.009123445,0.0077138552,0.012421465,0.019667482,0.01146231,0.008176231,0.002646006,0.005062115,0.013150995,0.013545252,0.0026434322,0.0,0.0,0.0,0.0,0.0,0.0,0.0,0
1,0.026931709,0.009360792,0.015486919,0.014528902,0.010306014,0.017332844,0.003953579,0.0060560177,0.012456793,0.039054073,0.0073466883,0.0040725656,0.010564556,0.018498747,0.014435421,0.037695818,0.01715221,0.022921374,0.019961812,0.026517235,0.056787957,0.011891691,0.008345124,0.006789959,0.027178474,0.008268801,0.011697525,0.0035782382,0.009020882,0.009211913,0.014977663,0.01328379,0.016081005,0.012175884,0.00532962,0.015256338,0.01136137,0.016613096,0.004376617,0.012351983,0.014395658,0.005437616,0.005826139,0.011368254,0.023070363,0.01712822,0.008248666,0.018147973,0.021093106,0.014702459,0.011701745,0.006019553,0.005335378,0.021950707,0.02138291,0.0022096785,0.0,0.0,0.0,0.0,0.0,0.0,0.0,0
2,0.028436314,0.010258617,0.02168123,0.0204842,0.01740656,0.017766755,0.0040725274,0.008126286,0.018757083,0.061797764,0.008836825,0.007832936,0.011089147,0.018371774,0.016214807,0.043796252,0.017200835,0.031764686,0.014802481,0.02398802,0.05713352,0.0130811,0.007178843,0.008220629,0.031914067,0.010034137,0.0103808865,0.00483128,0.009426695,0.011243029,0.01609033,0.012467736,0.018146208,0.012817474,0.004443026,0.023224633,0.01634062,0.015320723,0.004771767,0.011113441,0.016821837,0.006370287,0.006427945,0.010862938,0.027253676,0.017025845,0.009745988,0.023018511,0.023080785,0.018223058,0.011595533,0.004345906,0.006634222,0.016750403,0.021840395,0.0032176827,0.0,0.0,0.0,0.0,0.0,0.0,0.0,0
3,0.02802828,0.011069271,0.01672891,0.016894173,0.013272862,0.021927247,0.006158421,0.008422414,0.018802267,0.051972076,0.009184061,0.0048060706,0.009195185,0.0158956,0.020077094,0.041662235,0.025802625,0.03147412,0.01778444,0.023883974,0.06080962,0.021234293,0.009671967,0.009262183,0.043112576,0.015655536,0.009666617,0.004145328,0.009835673,0.011463954,0.018882914,0.014139709,0.022689553,0.011027273,0.0040094014,0.019026255,0.01599925,0.0125436615,0.0052931905,0.011314947,0.021296363,0.007028103,0.0060930313,0.013271386,0.024621433,0.018499257,0.011614981,0.017906861,0.03106983,0.014973137,0.011692351,0.0046770405,0.008063762,0.022467671,0.030195648,0.0028850795,0.0,0.0,0.0,0.0,0.0,0.0,0.0,0
4,0.03219031,0.012162918,0.019970762,0.018827615,0.012995717,0.022103995,0.0069124345,0.0073085837,0.019216504,0.05687788,0.011770152,0.008982524,0.021036258,0.027191777,0.027266182,0.044559147,0.021865254,0.03839717,0.022430755,0.030633025,0.08381476,0.02359829,0.010198761,0.010087018,0.039588876,0.017394468,0.012891815,0.00470981,0.010877434,0.013327794,0.019439396,0.01614322,0.022695713,0.01369463,0.00516687,0.020500807,0.01912899,0.013835957,0.005970035,0.013880374,0.015895834,0.008412603,0.0059096343,0.0171527,0.024820033,0.021640861,0.01818384,0.023780243,0.030134259,0.019358769,0.014923276,0.005728495,0.00799705,0.024240268,0.029993389,0.0030275849,0.0,0.0,0.0,0.0,0.0,0.0,0.0,0
5,0.02998148,0.010397051,0.025239645,0.028593337,0.020087354,0.028952904,0.0071562706,0.007998541,0.027131265,0.081811115,0.013262988,0.0077834507,0.022133827,0.023026668,0.022816397,0.04420097,0.02711363,0.044097338,0.024878997,0.024360305,0.09428204,0.024651263,0.011066685,0.011829859,0.043800645,0.02013516,0.015896691,0.004789197,0.014796582,0.016035618,0.02085323,0.018931858,0.021101959,0.016684104,0.0069005033,0.028972263,0.021545256,0.018434651,0.0059521617,0.015422375,0.016406292,0.009483739,0.009733886,0.016877066,0.031178994,0.02564568,0.018511238,0.02525636,0.03125909,0.025806695,0.01706771,0.0055303825,0.009655029,0.023473272,0.038420994,0.004031261,0.0,0.0,0.0,0.0,0.0,0.0,0.0,0
6,0.029913243,0.016691048,0.047772054,0.024585843,0.022967737,0.028397217,0.008407922,0.01190397,0.031181846,0.07311684,0.018030016,0.0053471113,0.01807543,0.021195333,0.024632346,0.04840042,0.027859969,0.05225783,0.022270272,0.031537592,0.064197816,0.029108517,0.011777352,0.013515211,0.05792137,0.029848633,0.021234572,0.005624436,0.013838218,0.01678646,0.026437908,0.021801801,0.025171444,0.022384888,0.007752804,0.024601873,0.019579487,0.016885951,0.0063522463,0.016744828,0.022399621,0.011322553,0.011890744,0.013599742,0.03982205,0.024266122,0.019672126,0.028141871,0.038757022,0.033773243,0.017792288,0.005710162,0.009422436,0.022438375,0.037482478,0.0054065096,0.0,0.0,0.0,0.0,0.0,0.0,0.0,0
7,0.04482339,0.013080351,0.03629469,0.02375912,0.029897597,0.027515266,0.009961927,0.013074594,0.028500002,0.079292715,0.01891916,0.01150351,0.030180287,0.032868635,0.029451702,0.062299434,0.03561682,0.0506431,0.029858386,0.03307965,0.1088057,0.022876581,0.013012762,0.018112395,0.04873698,0.023412531,0.019873565,0.00620674,0.013588274,0.018421466,0.024895497,0.019526767,0.027972367,0.02084712,0.007534362,0.033004362,0.023524504,0.021258885,0.0057520103,0.019873189,0.021247031,0.008308719,0.012492118,0.016758593,0.042141512,0.02445924,0.024371963,0.032130197,0.04269737,0.028861834,0.017746134,0.007117669,0.010375937,0.02391494,0.037342373,0.0044333907,0.0,0.0,0.0,0.0,0.0,0.0,0.0,0
8,0.04623454,0.015379797,0.028930757,0.026517378,0.02634856,0.033203375,0.010062132,0.014431306,0.033756346,0.07574337,0.019711668,0.009070475,0.021261374,0.03854254,0.031969253,0.08139606,0.03866284,0.053311255,0.03341235,0.0345007,0.10115618,0.02938262,0.011737746,0.017120548,0.044233434,0.027756583,0.023888994,0.00811541,0.017614208,0.022613786,0.029326275,0.020523896,0.02474934,0.019615555,0.008854695,0.037174854,0.02803488,0.024455536,0.005550563,0.027443653,0.022413414,0.010861968,0.013806074,0.019014414,0.040267017,0.02545534,0.020395037,0.038161013,0.04159732,0.037218492,0.016994009,0.007876335,0.010237534,0.027021151,0.03959071,0.004870968,0.0,0.0,0.0,0.0,0.0,0.0,0.0,0
9,0.039818358,0.01646577,0.032332793,0.031184848,0.028538726,0.039861675,0.012277596,0.014043664,0.035812825,0.08793491,0.017421253,0.01082261,0.0272771,0.033367485,0.037677012,0.08333227,0.046790503,0.054471035,0.03382691,0.036766417,0.1303063,0.03448737,0.0127620585,0.01725284,0.0465329,0.026006542,0.02026653,0.0072060646,0.015314004,0.019182311,0.030347077,0.02406626,0.033254184,0.023078553,0.009672891,0.03463457,0.029298496,0.026428455,0.0054537943,0.023692816,0.02395257,0.010860471,0.012545904,0.020055052,0.04153258,0.02916578,0.024239503,0.035162464,0.040720962,0.03685059,0.01789642,0.0074586337,0.013692161,0.023737784,0.044247966,0.0050303405,0.0,0.0,0.0,0.0,0.0,0.0,0.0,0
10,0.04206003,0.016722104,0.033752732,0.030740252,0.029408244,0.034756098,0.010352969,0.016933208,0.037721835,0.07822983,0.02121504,0.012747203,0.030045684,0.050345745,0.04481218,0.090504415,0.053219434,0.0706876,0.036502913,0.04883922,0.10025983,0.038882766,0.013343607,0.019450184,0.05017454,0.027237654,0.024250098,0.0076368675,0.02020212,0.021294452,0.027660437,0.026601799,0.031671066,0.019869903,0.010013081,0.031788014,0.03264038,0.025338711,0.0053519127,0.023971004,0.022595843,0.009665635,0.012779317,0.021577165,0.04278591,0.02712914,0.024258208,0.038135532,0.0444676,0.03439663,0.020214383,0.007526614,0.016576616,0.02837757,0.062488902,0.006643576,0.0,0.0,0.0,0.0,0.0,0.0,0.0,0
11,0.039710708,0.015035726,0.03952011,0.029293213,0.036260482,0.04069613,0.01135256,0.016695745,0.032367416,0.08870219,0.024645234,0.010217641,0.025794385,0.032818723,0.041056942,0.08321977,0.05415702,0.069017366,0.04223833,0.042308763,0.15490942,0.033353712,0.014769034,0.018195046,0.048934206,0.033395506,0.024746696,0.0094967615,0.022243941,0.02290079,0.031382617,0.033727873,0.027373357,0.025835859,0.011585882,0.046766218,0.029078707,0.025786594,0.0057939864,0.022966065,0.025272407,0.011556963,0.014575391,0.020060869,0.052069,0.03265687,0.028851772,0.039535187,0.047897078,0.040167872,0.021569004,0.009226622,0.017095983,0.026356416,0.04681848,0.005445232,0.0,0.0,0.0,0.0,0.0,0.0,0.0,0
12,0.053905245,0.0188493,0.039701626,0.035714343,0.03137441,0.04291194,0.013982849,0.01713533,0.03512397,0.07660653,0.021309942,0.013605099,0.03219046,0.034646332,0.055987272,0.07712408,0.066891134,0.07467093,0.045110878,0.06318983,0.20082754,0.043607455,0.015572449,0.0177787,0.054680903,0.031055715,0.023217874,0.009936045,0.01695342,0.023550756,0.030942347,0.03641643,0.032982178,0.021935923,0.010590911,0.041126158,0.030705338,0.020974046,0.0055734375,0.023741832,0.033151437,0.012574809,0.01433535,0.020861182,0.050314125,0.028158076,0.025854737,0.038105655,0.044304755,0.0424566,0.022637414,0.0075398143,0.016274003,0.029352445,0.051001556,0.007699579,0.0,0.0,0.0,0.0,0.0,0.0,0.0,0
13,0.050631925,0.012864622,0.043718375,0.03149242,0.026506046,0.043123152,0.01288097,0.01718738,0.03414902,0.06761796,0.030284917,0.010306687,0.02308432,0.038443495,0.044639334,0.0732762,0.054323114,0.06697607,0.03742894,0.048637222,0.17459022,0.046968613,0.0149276955,0.013288273,0.04950195,0.03550462,0.023152301,0.010914529,0.018725565,0.024309136,0.028219512,0.031813804,0.03499528,0.019926736,0.010978573,0.034629498,0.029641498,0.026953822,0.0060121315,0.021860672,0.029239966,0.011846122,0.011921903,0.024227882,0.048176147,0.03271473,0.034426894,0.031215161,0.0351348,0.039982595,0.016666861,0.0104380045,0.014644984,0.029842652,0.058195498,0.006598067,0.0,0.0,0.0,0.0,0.0,0.0,0.0,0
14,0.053450488,0.01570479,0.04536514,0.03383492,0.03148864,0.04929871,0.015002006,0.015823523,0.04442536,0.0655359,0.027013704,0.01290848,0.027421767,0.034876443,0.048305742,0.06397785,0.056312334,0.06089788,0.043459125,0.0575044,0.172918,0.03992042,0.013534697,0.017686736,0.053315956,0.027604658,0.02313812,0.012838994,0.018573742,0.028994674,0.0322406,0.04019412,0.03140833,0.022221876,0.01408672,0.03914399,0.03868571,0.032720868,0.0057290155,0.02250227,0.033602845,0.0103527885,0.01498917,0.026186096,0.03877717,0.035550468,0.023440432,0.03409529,0.040673696,0.034114905,0.01977285,0.009277907,0.016045507,0.034221128,0.034462377,0.007720205,0.0,0.0,0.0,0.0,0.0,0.0,0.0,0
15,0.05257594,0.01775335,0.0522978,0.03566079,0.03568629,0.059220914,0.014613325,0.016520502,0.041690283,0.06196333,0.028670639,0.0110333115,0.027539475,0.041499913,0.047794424,0.061018273,0.053405013,0.07230278,0.037652638,0.05412024,0.23452005,0.041259166,0.013887016,0.014343659,0.055898324,0.030625733,0.023641024,0.010149148,0.018943328,0.026156636,0.039960418,0.03897611,0.03089919,0.0190908,0.015059155,0.03310958,0.038024224,0.03451501,0.0064248554,0.025485752,0.030073358,0.011250533,0.013618867,0.020959208,0.0373629,0.030815365,0.029509347,0.029297864,0.040149275,0.04602592,0.019374099,0.008909101,0.016972702,0.027037423,0.043329135,0.0074464437,0.0,0.0,0.0,0.0,0.0,0.0,0.0,0
16,0.062618755,0.016817031,0.057929445,0.030793646,0.030340659,0.050459262,0.014864752,0.017645346,0.04261418,0.056987707,0.021921692,0.010014142,0.020545498,0.041307937,0.047515225,0.081706904,0.059720177,0.061368015,0.03740672,0.051374357,0.20132765,0.041687485,0.014035657,0.01536052,0.07017386,0.025171654,0.026081726,0.007875855,0.02003856,0.02324382,0.04139826,0.038896244,0.038210314,0.019960197,0.013766817,0.032295026,0.037160076,0.03639992,0.0066938694,0.036092874,0.03200464,0.00876519,0.012216144,0.012905761,0.032307904,0.032918222,0.031135496,0.031558644,0.04256893,0.0310092,0.018233402,0.007762888,0.018496292,0.029167693,0.043552533,0.0056691607,0.0,0.0,0.0,0.0,0.0,0.0,0.0,0
17,0.06893606,0.0149993105,0.051642876,0.028684903,0.029415693,0.053587154,0.013265008,0.017221522,0.03613718,0.07416642,0.020105144,0.011404596,0.023594525,0.034751985,0.0426202,0.08586945,0.054079216,0.07613355,0.035992958,0.04576718,0.22258106,0.036534484,0.012758676,0.015780373,0.058770977,0.024402982,0.030274024,0.01105831,0.019236518,0.02577569,0.03885866,0.039719485,0.030132672,0.022792242,0.014428597,0.035311,0.033095017,0.040892582,0.0071874326,0.035764556,0.030076146,0.009636348,0.014804267,0.017198075,0.042624228,0.037726305,0.028169349,0.030003536,0.03558577,0.034318626,0.017201226,0.0076617366,0.017848784,0.026667327,0.046316497,0.0058955927,0.0,0.0,0.0,0.0,0.0,0.0,0.0,0
18,0.05087625,0.015599807,0.06111962,0.030267192,0.02962525,0.05792819,0.011810898,0.022179065,0.0404306,0.06187741,0.026398003,0.008673935,0.020813763,0.034294832,0.035695538,0.08861555,0.059192214,0.060837604,0.03613644,0.0462988,0.16368257,0.05514009,0.012883743,0.017778972,0.072483025,0.02969397,0.02608595,0.009698676,0.019075658,0.023526201,0.034258083,0.046636805,0.029546257,0.022398846,0.014252105,0.03730858,0.027869904,0.0390278,0.0066102394,0.034352213,0.029133745,0.00943678,0.016248567,0.02655675,0.037403546,0.032491412,0.026569368,0.026234202,0.037636217,0.037480306,0.01710524,0.007924473,0.016772011,0.023942774,0.03768347,0.00644248,0.0,0.0,0.0,0.0,0.0,0.0,0.0,0
19,0.0592234,0.02062493,0.052554034,0.029053774,0.030276364,0.040585607,0.010685542,0.02139588,0.035783302,0.06248154,0.018603362,0.009463588,0.025102854,0.023067355,0.036611453,0.081885524,0.052836705,0.06623328,0.032772485,0.04603148,0.17696902,0.036540106,0.01503491,0.019107023,0.077740334,0.029825289,0.022425257,0.009242426,0.018792648,0.023271205,0.032559544,0.04074009,0.039358087,0.017521145,0.010930653,0.031966284,0.025744298,0.034482326,0.006663715,0.02815639,0.030347222,0.008875619,0.013728669,0.02106981,0.04070157,0.026124958,0.026724564,0.031487577,0.04296118,0.02959639,0.014368945,0.006431387,0.014716847,0.025848445,0.03893997,0.0062974817,0.0,0.0,0.0,0.0,0.0,0.0,0.0,0
20,0.06341978,0.015579223,0.046016794,0.021598056,0.025867412,0.05120269,0.009409673,0.018355262,0.026392732,0.056921817,0.01946711,0.0077428566,0.019511763,0.024450965,0.027762128,0.06560503,0.042470366,0.05113128,0.032671213,0.048480056,0.14644127,0.048006944,0.010489128,0.016337462,0.07440129,0.027251352,0.02157426,0.009361373,0.01548488,0.023958925,0.030770618,0.04517034,0.025710516,0.017403021,0.011882768,0.028899357,0.023626607,0.0342189,0.0066982186,0.028181141,0.029334085,0.0074245916,0.011735934,0.019925047,0.027092272,0.026812086,0.025501505,0.03331794,0.043593556,0.030308299,0.013579059,0.0068063834,0.0120648,0.031803336,0.04149153,0.005503797,0.0,0.0,0.0,0.0,0.0,0.0,0.0,0
21,0.060889043,0.016661456,0.058369033,0.02734392,0.02493457,0.041187607,0.01043987,0.017633794,0.029806336,0.07153259,0.02195315,0.0060863676,0.021387767,0.01740284,0.048957273,0.06840518,0.038365524,0.053954836,0.029944232,0.034432217,0.16870505,0.02959895,0.014744503,0.016139226,0.05980516,0.031146001,0.023244454,0.009372467,0.016824242,0.020906635,0.032183163,0.044519223,0.027128534,0.018346198,0.012718149,0.033534575,0.021077072,0.03220822,0.006309867,0.028262435,0.0260009,0.0098179,0.011277694,0.016120292,0.028419618,0.020984432,0.02613991,0.031686492,0.040727284,0.036143582,0.013036427,0.00790666,0.011515642,0.032809783,0.038010374,0.0054596826,0.0,0.0,0.0,0.0,0.0,0.0,0.0,0
22,0.049448572,0.018401045,0.044964112,0.019625148,0.025203863,0.04173329,0.009319316,0.014996579,0.0314166,0.053795315,0.016248878,0.00605735,0.01667321,0.014339133,0.04006518,0.04384165,0.04165114,0.04533794,0.02589032,0.046066772,0.14893247,0.036217447,0.010983675,0.011735491,0.061760604,0.024603708,0.019537687,0.0076061403,0.01534421,0.022010095,0.030668817,0.04254116,0.03126689,0.013614743,0.012152046,0.029218521,0.020821836,0.024320306,0.0063893273,0.022798503,0.025795106,0.0059580486,0.010591823,0.0148687335,0.024159446,0.020800052,0.020881806,0.026321793,0.029485302,0.028503362,0.013131808,0.005963715,0.010934494,0.027564082,0.02542656,0.007274481,0.0,0.0,0.0,0.0,0.0,0.0,0.0,0
23,0.046434674,0.015990444,0.04316728,0.017410366,0.023680463,0.026989311,0.007883557,0.014388235,0.023212168,0.054608837,0.018295668,0.0066097155,0.01531687,0.013837673,0.042849526,0.043441623,0.03772416,0.035590645,0.028108334,0.032051653,0.13099049,0.041902985,0.013678277,0.015152379,0.07201809,0.02436325,0.020286381,0.0076284804,0.016221207,0.018204387,0.029981123,0.047366142,0.03558552,0.015381097,0.010988128,0.025587711,0.024446912,0.026810024,0.006703917,0.026724385,0.023792844,0.0057201628,0.0089265425,0.016121242,0.024767125,0.019516466,0.020207923,0.023219446,0.03163029,0.025794813,0.011862872,0.007956579,0.010780113,0.026659071,0.029250072,0.007400571,0.0,0.0,0.0,0.0,0.0,0.0,0.0,0
24,0.04536022,0.012799292,0.040664405,0.017759059,0.024799678,0.024147475,0.0080863135,0.01340468,0.02744652,0.05094077,0.018979223,0.0056591006,0.015691124,0.0142652625,0.032957852,0.04461908,0.040458824,0.037291963,0.029704662,0.035354152,0.12740175,0.028482791,0.011511916,0.0147473,0.059604805,0.025915584,0.020249443,0.007016742,0.013314154,0.019009173,0.033344757,0.03277516,0.03559423,0.0160186,0.012832499,0.025610855,0.023754347,0.029861001,0.007451444,0.028743515,0.017414594,0.0050759376,0.010077173,0.013926826,0.028943393,0.016566327,0.01422259,0.021132234,0.025347646,0.029605933,0.01243937,0.0063641523,0.010732084,0.028382497,0.03969004,0.0073125446,0.0,0.0,0.0,0.0,0.0,0.0,0.0,0
25,0.029780189,0.012236133,0.034038834,0.014778579,0.018844882,0.020932663,0.0073831123,0.010615576,0.026718045,0.05071545,0.016504485,0.0043272437,0.013305191,0.014591917,0.04157443,0.038551062,0.032551706,0.038347326,0.024705306,0.029768674,0.111334994,0.040448584,0.012330457,0.013640118,0.051421203,0.01958402,0.019229393,0.005497792,0.011403039,0.017345473,0.033195436,0.030729737,0.026565146,0.016046373,0.013410442,0.019662116,0.022472285,0.02869325,0.005712774,0.029026074,0.02154496,0.0042100083,0.008862621,0.0120660635,0.019356797,0.013509066,0.015908403,0.01877733,0.02163198,0.031523086,0.009687271,0.005047481,0.0109887915,0.024990555,0.03378904,0.0071285935,0.0,0.0,0.0,0.0,0.0,0.0,0.0,0
26,0.030141642,0.0099510485,0.045895237,0.012800553,0.019826444,0.014695555,0.0067604827,0.008175879,0.019444251,0.04324812,0.023023983,0.0033893867,0.013148499,0.012563089,0.038294118,0.032737717,0.030026143,0.034807853,0.0252806,0.02218016,0.11752569,0.03596055,0.008727663,0.011345243,0.0616047,0.014805483,0.014398292,0.0061805043,0.010645395,0.017969316,0.027544107,0.033314615,0.029158669,0.011244447,0.010030776,0.020159185,0.018736579,0.020028593,0.005051881,0.03066799,0.019713143,0.0040188828,0.0063888337,0.00892707,0.012260281,0.013338978,0.015572051,0.0143486615,0.02288406,0.020654634,0.009709113,0.0044269874,0.010795701,0.026860844,0.026885556,0.005109973,0.0,0.0,0.0,0.0,0.0,0.0,0.0,0
27,0.022040118,0.0067714513,0.032254837,0.010713853,0.01590365,0.016172197,0.0052434243,0.008149157,0.020430485,0.032532897,0.014938596,0.0034179185,0.009408219,0.008945265,0.042355232,0.027608324,0.02680294,0.03249418,0.016969657,0.029081123,0.106773935,0.032227404,0.009499941,0.012976617,0.04227446,0.0114514725,0.011579516,0.005887933,0.013177158,0.018347362,0.028151415,0.032677244,0.024065696,0.012508187,0.0094283065,0.017203402,0.01894953,0.020453999,0.004668717,0.034225162,0.015823355,0.0035943545,0.0059663607,0.00885036,0.0148459785,0.012265037,0.01319644,0.013522394,0.023799213,0.020849029,0.0069929464,0.0035543002,0.008135401,0.020339126,0.022737313,0.005092215,0.0,0.0,0.0,0.0,0.0,0.0,0.0,0
28,0.016989319,0.0068818964,0.035067197,0.009904279,0.012859282,0.014821733,0.0049975584,0.007344995,0.014683596,0.032973934,0.012112753,0.00283782,0.0061397804,0.007330298,0.03425723,0.020389402,0.02047095,0.021510135,0.018597824,0.020166984,0.103290565,0.024013251,0.006359657,0.0117856,0.047203913,0.014305393,0.013807158,0.003921088,0.009818736,0.014995247,0.024681365,0.028086137,0.020794708,0.010881726,0.009262758,0.013928092,0.014545874,0.01787191,0.003380808,0.02961705,0.0151909655,0.003026024,0.006021329,0.0064633857,0.015124245,0.010666643,0.009565365,0.013029239,0.017238598,0.017066233,0.0068891644,0.0037722907,0.0071396898,0.015985917,0.018761069,0.0045413617,0.0,0.0,0.0,0.0,0.0,0.0,0.0,0
29,0.018028796,0.0053402917,0.027402105,0.007360268,0.012193539,0.01563288,0.00400279,0.0063115135,0.014217214,0.026981195,0.008665497,0.002353264,0.0073654316,0.004551288,0.027489355,0.015665134,0.017871287,0.026485989,0.01478383,0.025089487,0.098513156,0.01396695,0.007103674,0.011749913,0.03774958,0.010172836,0.010169896,0.0029356105,0.0078070993,0.007527101,0.022034073,0.021920824,0.013103694,0.007233313,0.006662881,0.011689257,0.015280812,0.014218063,0.0024086658,0.020625219,0.015638376,0.002749962,0.0049123527,0.0067774532,0.014040241,0.006797892,0.010454306,0.009632157,0.012565977,0.013473068,0.0061924704,0.003398373,0.0062537706,0.01327388,0.015198253,0.0039681424,0.0,0.0,0.0,0.0,0.0,0.0,0.0,0
0,0.026220992,0.0045323092,0.014793722,0.010514647,0.009644757,0.013253494,0.004569552,0.008527454,0.008736958,0.027181797,0.009675482,0.0028187365,0.005868204,0.00889971,0.019717678,0.015002382,0.016936002,0.024511298,0.011864655,0.014223523,0.068029195,0.0115045495,0.0041728923,0.0075867,0.026951874,0.0065908316,0.008860281,0.0020865542,0.0051876707,0.0050230464,0.0148040345,0.0124067115,0.017359056,0.015440412,0.007123687,0.02113745,0.011181466,0.018719917,0.005353105,0.018150184,0.016013883,0.007225843,0.0056124544,0.013997996,0.01489554,0.0068014464,0.008115296,0.011105493,0.016790016,0.019054811,0.009237541,0.0037292284,0.006570882,0.01956655,0.015255241,0.0027381633,0.0,0.0,0.0,0.0,0.0,0.0,0.0,1
1,0.030346273,0.008196044,0.020209294,0.012894141,0.011650051,0.016838664,0.0064778817,0.00961718,0.00951741,0.027305475,0.0109924665,0.0045056003,0.007034208,0.01334811,0.023384292,0.025527462,0.020176932,0.023710815,0.013882654,0.0179446,0.07785548,0.01824927,0.0046261037,0.009227291,0.025470115,0.0067606647,0.010594291,0.0024750738,0.0058951983,0.008107263,0.017423633,0.017077224,0.019549662,0.012103137,0.0075948546,0.027606988,0.017694378,0.027048359,0.0069824182,0.017382894,0.015115763,0.009438496,0.0072808503,0.024501527,0.018819649,0.015772667,0.010154681,0.013326047,0.01903368,0.017803764,0.010392894,0.004529087,0.008912422,0.024945432,0.017000256,0.0030043123,0.0,0.0,0.0,0.0,0.0,0.0,0.0,1
2,0.03617474,0.008464617,0.021400249,0.011908647,0.01281624,0.0144698955,0.005703741,0.010046627,0.011978865,0.04345905,0.01330297,0.005516631,0.008164998,0.012342253,0.028449064,0.024375869,0.024289837,0.033036277,0.014436433,0.026344335,0.07913758,0.025083,0.0062883664,0.00985292,0.029972311,0.009262954,0.0096949395,0.0030402935,0.0055897543,0.0065098745,0.018993828,0.018650485,0.020498995,0.014352333,0.006268065,0.034932353,0.016071096,0.034098826,0.007186837,0.017427398,0.01791932,0.010607447,0.00890044,0.02205762,0.024637436,0.014764065,0.012088339,0.015616374,0.023350563,0.019790387,0.010349948,0.005281072,0.010513325,0.02374164,0.019267399,0.0031663044,0.0,0.0,0.0,0.0,0.0,0.0,0.0,1
3,0.038818825,0.009605827,0.020400377,0.013258645,0.017130459,0.018591778,0.007998771,0.011385568,0.014795762,0.03288809,0.0126080485,0.0045937425,0.009114696,0.015991008,0.03322706,0.022197058,0.02467721,0.036894135,0.0162573,0.024373181,0.08281364,0.028941642,0.006320524,0.011336222,0.028005553,0.010906054,0.009832435,0.0032318945,0.0059425035,0.007937861,0.022516172,0.017945023,0.026529465,0.013522673,0.006326077,0.03845145,0.020139152,0.039780013,0.0074875294,0.020918267,0.027625984,0.010708199,0.0088315,0.021564478,0.0286675,0.017644614,0.016233929,0.018195525,0.027200691,0.024777994,0.009216611,0.005187128,0.010368729,0.030497918,0.025479829,0.004021899,0.0,0.0,0.0,0.0,0.0,0.0,0.0,1
4,0.04932235,0.010198265,0.023432648,0.01890262,0.017792834,0.020040503,0.010502189,0.014108661,0.018464314,0.045969017,0.016911454,0.0062701884,0.012495879,0.02176695,0.03737948,0.028729739,0.025858242,0.03634463,0.018058013,0.029301979,0.09671244,0.026653197,0.0057555907,0.014626367,0.035324354,0.01350677,0.011670003,0.0030621411,0.009681352,0.009302266,0.025764072,0.020513529,0.03200754,0.01445858,0.008032951,0.03786879,0.023173418,0.033832047,0.008455329,0.021276403,0.03328052,0.014418507,0.009929825,0.029599858,0.027603686,0.017379714,0.016312856,0.017722294,0.025606066,0.026025826,0.011904687,0.0049762405,0.011365324,0.029276092,0.022273265,0.0033627348,0.0,0.0,0.0,0.0,0.0,0.0,0.0,1
5,0.036411382,0.009402973,0.02896164,0.017600523,0.015534519,0.019300777,0.009222447,0.014546958,0.021570913,0.04362855,0.022321628,0.0060003893,0.015769524,0.021812499,0.03406012,0.029770236,0.032131325,0.05045278,0.024574682,0.031939674,0.10943097,0.027591418,0.0089126155,0.015600128,0.038039744,0.01293212,0.01412122,0.003889761,0.010706568,0.011480061,0.022949016,0.02556344,0.03643308,0.017104698,0.009772098,0.04892187,0.03536553,0.041722685,0.010587074,0.03205588,0.029396964,0.013386314,0.010060212,0.02964714,0.028780425,0.019469846,0.01783581,0.01992461,0.030734237,0.027237177,0.015014224,0.0067060133,0.0125339385,0.034895483,0.025161628,0.0036451533,0.0,0.0,0.0,0.0,0.0,0.0,0.0,1
6,0.043561097,0.0136049725,0.02580651,0.017699847,0.019798646,0.024606895,0.008175946,0.016508205,0.025545908,0.040224917,0.025164247,0.005454415,0.01875986,0.023061287,0.03966084,0.028307341,0.032181215,0.05128169,0.024017423,0.0315751,0.10705233,0.027064724,0.009052766,0.020932693,0.05692465,0.01442072,0.015896631,0.0050927303,0.008792001,0.012518112,0.023410855,0.030091122,0.039695926,0.019670354,0.010747342,0.059960395,0.025688736,0.03794164,0.01018584,0.038914394,0.03261876,0.0161439,0.010996185,0.03789812,0.033796344,0.0200457,0.01918715,0.021032654,0.031395197,0.031213665,0.014977761,0.0067155426,0.014420848,0.034507964,0.025166595,0.003914433,0.0,0.0,0.0,0.0,0.0,0.0,0.0,1
7,0.057662006,0.011651331,0.040557284,0.01937783,0.023584386,0.03480773,0.0076178657,0.018288514,0.030266358,0.050408646,0.02948036,0.008757632,0.021585437,0.027291631,0.04405279,0.027296808,0.04335332,0.053711716,0.029320007,0.04472694,0.12522249,0.032903023,0.009466548,0.019033622,0.05134525,0.015240352,0.014820419,0.0047458196,0.009340243,0.015123654,0.028177278,0.027674612,0.037702337,0.018126607,0.011738674,0.061425764,0.039349608,0.044309616,0.009322818,0.03181063,0.030417724,0.015638854,0.010719364,0.032078747,0.034729794,0.015576429,0.020163756,0.022925425,0.034723666,0.031359326,0.01543828,0.007874858,0.014368665,0.035858266,0.031176006,0.0050736438,0.0,0.0,0.0,0.0,0.0,0.0,0.0,1
8,0.058054782,0.0170813,0.03695391,0.021752922,0.021982666,0.028185086,0.009759026,0.01936392,0.024253312,0.058079664,0.026883218,0.0078040953,0.01943056,0.026530946,0.040016484,0.039546564,0.03518027,0.045593847,0.029274289,0.034010552,0.11067862,0.039236072,0.011579426,0.02060987,0.047371894,0.016988918,0.018584063,0.0068442277,0.01271072,0.021302402,0.025915476,0.031546842,0.039311707,0.022154538,0.014057403,0.07865719,0.028288838,0.050110765,0.010369268,0.034351986,0.036506757,0.01680653,0.010538461,0.030340265,0.03369067,0.018497702,0.021006955,0.02264541,0.040212624,0.03275257,0.017963585,0.0073918165,0.01844973,0.03538945,0.035044406,0.005680708,0.0,0.0,0.0,0.0,0.0,0.0,0.0,1
9,0.06466875,0.011668992,0.030092457,0.020478606,0.023174338,0.03528295,0.010233988,0.017315276,0.029588494,0.06191412,0.027748603,0.009227291,0.020701561,0.030401327,0.045432195,0.042002875,0.038572725,0.060170338,0.031104015,0.044842027,0.1274605,0.040702682,0.013705364,0.025547303,0.05160345,0.018456202,0.01686433,0.0066886707,0.014790487,0.017373879,0.026804766,0.03260167,0.048825726,0.022009907,0.01481732,0.073018216,0.038255736,0.044742,0.011686804,0.042218834,0.036767717,0.014349845,0.00931329,0.030670943,0.03319527,0.017889984,0.0220681,0.018977296,0.04192727,0.034016546,0.019228997,0.007987343,0.016367648,0.0416371,0.037979938,0.0049773366,0.0,0.0,0.0,0.0,0.0,0.0,0.0,1
10,0.072447084,0.012510167,0.047507495,0.03175788,0.021625286,0.032378998,0.009034848,0.017154517,0.027501715,0.063340954,0.031287644,0.01012409,0.022587324,0.033371065,0.049420867,0.04067707,0.047594152,0.063832186,0.03510428,0.041261215,0.1546322,0.03897626,0.015971627,0.021406874,0.053768963,0.018967094,0.0156324,0.006693615,0.015246112,0.022898842,0.029430013,0.044375747,0.04760493,0.02542741,0.017040517,0.07441838,0.030003073,0.040719647,0.011048752,0.03905465,0.034040656,0.015323867,0.011712894,0.032675926,0.040901672,0.017324481,0.024815448,0.018854922,0.046784986,0.028308636,0.019902458,0.007588066,0.015215885,0.038234495,0.04039164,0.006370441,0.0,0.0,0.0,0.0,0.0,0.0,0.0,1
11,0.07387073,0.01369891,0.042845927,0.0262289,0.02394661,0.032776866,0.009996448,0.016777333,0.030105457,0.06708216,0.030989936,0.009145445,0.024258342,0.031546634,0.043882657,0.046113193,0.039150033,0.056880414,0.035996106,0.038995717,0.1291484,0.04588499,0.016999034,0.02296626,0.055898987,0.017755328,0.019269358,0.007282698,0.0154447,0.02324292,0.029211631,0.0537822,0.047981374,0.022609988,0.021026118,0.08724143,0.03263977,0.042271603,0.011423552,0.03435839,0.035541426,0.017379671,0.013312848,0.045364723,0.049804978,0.021924162,0.022981092,0.021667514,0.04742234,0.037988566,0.021604763,0.008476752,0.01742811,0.039465334,0.042966615,0.006831131,0.0,0.0,0.0,0.0,0.0,0.0,0.0,1
12,0.064123996,0.014572577,0.048325073,0.024787372,0.026549274,0.035284877,0.00953989,0.017479224,0.030345647,0.07094383,0.03031057,0.008429593,0.026693834,0.025613979,0.048544705,0.040378638,0.039302744,0.060042564,0.03354344,0.04471255,0.13549806,0.041307732,0.019603077,0.02176995,0.055489387,0.023383772,0.019771405,0.0076198634,0.014836082,0.02107318,0.030311733,0.04589875,0.054101605,0.027069872,0.018588454,0.090653874,0.03362801,0.04883345,0.011359593,0.032771472,0.039162844,0.01945388,0.013247399,0.049529307,0.046899028,0.02395926,0.02527898,0.027614214,0.047568098,0.03098215,0.023476955,0.008585162,0.015212576,0.047176078,0.043274086,0.0067543807,0.0,0.0,0.0,0.0,0.0,0.0,0.0,1
13,0.06179469,0.013423158,0.06376546,0.03330674,0.023752954,0.033110414,0.013024733,0.02017837,0.024890292,0.070007384,0.0327963,0.008246967,0.023053592,0.031169854,0.053038977,0.037977435,0.0375188,0.056062944,0.03404399,0.041463967,0.12929986,0.036710534,0.016856851,0.021819327,0.04810184,0.025461467,0.016184803,0.009700605,0.019131713,0.02215415,0.034894705,0.042462774,0.051539138,0.026761921,0.01944764,0.07997527,0.043049186,0.04930942,0.012730081,0.035117473,0.03689537,0.01632789,0.013473061,0.044711042,0.041896146,0.020315403,0.026274703,0.020132655,0.041528996,0.030877763,0.021756306,0.008185099,0.01739952,0.05088531,0.038994227,0.005668188,0.0,0.0,0.0,0.0,0.0,0.0,0.0,1
14,0.060595773,0.015648337,0.06467548,0.03737082,0.025540857,0.042023167,0.010726556,0.020397386,0.029047338,0.0809194,0.034749184,0.009160166,0.022256348,0.029857645,0.045409385,0.03851809,0.047922224,0.0563863,0.03844301,0.04396084,0.13163319,0.034000706,0.018178722,0.022296283,0.057287958,0.020248802,0.021519493,0.009676753,0.01654274,0.026933407,0.027006354,0.05034674,0.06390064,0.029413378,0.021721374,0.08751797,0.04191179,0.05985601,0.012079468,0.032369565,0.03532368,0.016310064,0.013091102,0.044991307,0.04540896,0.021531167,0.027478786,0.02136214,0.040360283,0.028349461,0.023902418,0.009390969,0.016505426,0.04373206,0.031791657,0.006467542,0.0,0.0,0.0,0.0,0.0,0.0,0.0,1
15,0.0656968,0.019599915,0.06256699,0.030565612,0.025612818,0.03662252,0.011233936,0.019075148,0.030359164,0.07854307,0.03806112,0.008024521,0.020493452,0.03008033,0.048317928,0.03208702,0.053556625,0.05809345,0.035134822,0.048255518,0.12611887,0.03668299,0.016920332,0.019040309,0.050582018,0.025219874,0.023168845,0.0099423425,0.015903894,0.022995219,0.030409012,0.04682544,0.060238786,0.03484084,0.023265459,0.06909047,0.055611707,0.052221823,0.013635831,0.031009875,0.03230485,0.017391145,0.014374977,0.042325534,0.04073717,0.022961965,0.029854905,0.022972679,0.03694995,0.02965969,0.025704354,0.01019293,0.020208089,0.03923794,0.038324837,0.006067349,0.0,0.0,0.0,0.0,0.0,0.0,0.0,1
16,0.08262709,0.01837294,0.05791185,0.036152482,0.019174848,0.029406903,0.012615759,0.021252174,0.032580104,0.073120095,0.03326918,0.008262907,0.020545324,0.03145793,0.05121065,0.038283397,0.040694628,0.064138025,0.033590786,0.03256152,0.11729572,0.040759515,0.018801987,0.020472247,0.04992807,0.017387453,0.023800893,0.008501292,0.017143166,0.024497906,0.037984572,0.045213044,0.07304169,0.030552937,0.019409264,0.07301012,0.044976633,0.046513304,0.01248161,0.03484258,0.046413347,0.017719345,0.013778389,0.044504937,0.04855969,0.02365628,0.031230154,0.02346279,0.038352612,0.02969672,0.024144674,0.009753164,0.01950144,0.03698412,0.033273283,0.0066927974,0.0,0.0,0.0,0.0,0.0,0.0,0.0,1
17,0.07140897,0.017681232,0.07499129,0.034640636,0.02915036,0.038518984,0.015311284,0.024090853,0.02566978,0.07450123,0.038692866,0.009847506,0.020388374,0.036643606,0.04615002,0.039262403,0.04428453,0.07139887,0.03882145,0.038407106,0.14736061,0.038221825,0.018132256,0.020072956,0.045306206,0.01809728,0.025109302,0.010621466,0.019363163,0.02523341,0.042934522,0.057425916,0.05820392,0.031140214,0.027076129,0.080895476,0.05163205,0.05959099,0.012673976,0.038398907,0.040895633,0.017151624,0.018813796,0.039923176,0.051879812,0.026874416,0.028212616,0.029368855,0.031974524,0.033113804,0.024380686,0.010732256,0.020367702,0.0413372,0.046104617,0.007997791,0.0,0.0,0.0,0.0,0.0,0.0,0.0,1
18,0.07256373,0.016945275,0.08908319,0.030966243,0.023092836,0.040788572,0.011812311,0.026200613,0.026870549,0.08368789,0.037130624,0.009309245,0.016377827,0.031370204,0.05126131,0.048952226,0.041985344,0.06129521,0.04838848,0.033033676,0.12678804,0.041355897,0.017981015,0.021394376,0.055264153,0.018218942,0.026810516,0.014497423,0.016923113,0.026956106,0.04695708,0.058767915,0.069504194,0.039353963,0.02516803,0.08387384,0.046481363,0.05856443,0.013196103,0.037384413,0.04643011,0.018439718,0.017074699,0.049094304,0.04427545,0.022297332,0.0266513,0.030316023,0.03652735,0.03557141,0.02181964,0.010187203,0.01906281,0.037631743,0.048223145,0.008427752,0.0,0.0,0.0,0.0,0.0,0.0,0.0,1
19,0.078901954,0.015595939,0.07427715,0.030731516,0.020041587,0.035518434,0.012863071,0.02635729,0.029652646,0.07026476,0.03423267,0.010116563,0.020009266,0.031318378,0.04857429,0.046715934,0.039344504,0.06477995,0.0411407,0.039401192,0.10779716,0.031757828,0.015558255,0.019255284,0.05613661,0.016713947,0.018186385,0.011415908,0.016062591,0.02461977,0.052784372,0.05291592,0.066803694,0.03464582,0.023837244,0.066147,0.041103255,0.05453834,0.012666237,0.028622188,0.048482288,0.02057064,0.01616987,0.044462476,0.040408965,0.023185939,0.029530624,0.028731015,0.0347163,0.031213935,0.020768613,0.010323562,0.017601788,0.031670727,0.05028693,0.007951094,0.0,0.0,0.0,0.0,0.0,0.0,0.0,1
20,0.0686025,0.01645079,0.0787246,0.031875167,0.027332671,0.028803727,0.010725217,0.021643862,0.031200146,0.07513143,0.03575201,0.009410107,0.017553775,0.03971848,0.04554916,0.043737557,0.039537314,0.04609447,0.034645002,0.034405388,0.10842805,0.035638254,0.015493789,0.023032065,0.053568732,0.016431114,0.0155244535,0.01111985,0.016896378,0.024538154,0.050976526,0.052137047,0.07460896,0.03484752,0.024743043,0.05612199,0.04169413,0.053964216,0.014581121,0.021109348,0.05137037,0.014629916,0.017410116,0.046511117,0.038629472,0.020076498,0.026538769,0.029109215,0.029898636,0.030238276,0.020398531,0.009806679,0.01654218,0.029120393,0.044969723,0.0073534427,0.0,0.0,0.0,0.0,0.0,0.0,0.0,1
21,0.06677954,0.017284926,0.07116187,0.029497702,0.026722461,0.029609518,0.010705233,0.02318216,0.031274524,0.077763796,0.03734775,0.009149926,0.022151561,0.031648364,0.04834447,0.04203764,0.03188711,0.04553395,0.03697627,0.031066284,0.113965005,0.029273417,0.01806462,0.01833819,0.04351877,0.015881639,0.015437795,0.0121161565,0.021865832,0.023603883,0.0563977,0.05978184,0.06079454,0.033964124,0.019390363,0.07666172,0.039414123,0.046049543,0.014525179,0.024173476,0.05340112,0.0146909645,0.014231359,0.043705445,0.032998096,0.01783775,0.023258043,0.024989784,0.033032354,0.032624926,0.01950219,0.010620613,0.018572709,0.026418533,0.050109766,0.008026786,0.0,0.0,0.0,0.0,0.0,0.0,0.0,1
22,0.05280181,0.012669099,0.05884773,0.026799198,0.025427205,0.035272837,0.011443425,0.021013085,0.02652482,0.058106966,0.03244302,0.008822795,0.015669972,0.03671772,0.04418094,0.035700634,0.032532983,0.03452117,0.030873813,0.035030536,0.109946914,0.02916823,0.014584663,0.017725123,0.035621934,0.014872017,0.019097261,0.011395956,0.019927366,0.025017349,0.040619865,0.057778973,0.05315671,0.0351731,0.022116197,0.054817345,0.035324596,0.045627154,0.010193707,0.023249442,0.03962681,0.012138854,0.0149927065,0.040736653,0.032959078,0.015792938,0.025814354,0.026432056,0.025416223,0.027460258,0.021513533,0.009537611,0.01677237,0.028628007,0.038687274,0.007858143,0.0,0.0,0.0,0.0,0.0,0.0,0.0,1
23,0.046365377,0.012425208,0.063786946,0.029059147,0.0264336,0.037851926,0.01039587,0.020342385,0.022323437,0.05594577,0.03558427,0.00848214,0.017975593,0.03601297,0.036735844,0.03571871,0.03326535,0.037046004,0.03267573,0.041131034,0.09382765,0.025327118,0.015289644,0.016551044,0.040498536,0.016554266,0.01826252,0.009879639,0.021300422,0.02250858,0.03455254,0.06759911,0.05470423,0.02803139,0.019848509,0.04709769,0.043879446,0.03665144,0.012530514,0.021769317,0.031875566,0.012382445,0.0147289,0.036691878,0.034991905,0.01649953,0.018170439,0.028546399,0.026401525,0.025180787,0.019030066,0.010065485,0.017735055,0.027426416,0.035216432,0.0077460664,0.0,0.0,0.0,0.0,0.0,0.0,0.0,1
24,0.060341027,0.01366591,0.07490056,0.022524947,0.0289612,0.03320822,0.009813647,0.019055115,0.024961594,0.06473607,0.03491165,0.008367675,0.01877776,0.029770967,0.04131608,0.032023348,0.037257142,0.030286483,0.028144596,0.033368357,0.09195811,0.02721871,0.015187389,0.019180048,0.037159253,0.013161372,0.019783929,0.0099962875,0.016594276,0.023522742,0.040704418,0.0646829,0.04587627,0.023739526,0.021083789,0.04423063,0.03792307,0.03613149,0.011654845,0.019763574,0.031209955,0.012735242,0.014647334,0.030504009,0.029325826,0.015918663,0.017610595,0.026168857,0.024668768,0.02540017,0.022708653,0.009381456,0.015965622,0.029296683,0.038266387,0.0068762074,0.0,0.0,0.0,0.0,0.0,0.0,0.0,1
25,0.051710635,0.013024381,0.053314064,0.021407228,0.02220094,0.03585206,0.009813344,0.01882408,0.022101661,0.057279196,0.028712718,0.0075999917,0.013522323,0.024147455,0.03607553,0.029110787,0.027059995,0.031057712,0.028635263,0.03348284,0.0830017,0.021244079,0.014536899,0.016545977,0.024692135,0.01479607,0.020176819,0.009617032,0.015418938,0.02315792,0.03634979,0.06464575,0.033588763,0.024238305,0.020101458,0.031942945,0.032725822,0.034633655,0.009573277,0.02172811,0.027394528,0.012879739,0.010569204,0.025103895,0.02858743,0.017071962,0.017063238,0.023751538,0.03085683,0.021807397,0.01877559,0.0072039454,0.016090851,0.02734526,0.03300182,0.006330534,0.0,0.0,0.0,0.0,0.0,0.0,0.0,1
26,0.041983362,0.011623018,0.07485489,0.020692522,0.017527157,0.03458589,0.00838435,0.01672506,0.023758648,0.05301705,0.027764002,0.0060238005,0.012818105,0.0258095,0.030965202,0.030439598,0.03672591,0.027645456,0.02788053,0.027688373,0.09324003,0.017660495,0.01345164,0.015406304,0.02631431,0.013402785,0.016529612,0.0071649402,0.013612176,0.018421428,0.03978931,0.05406787,0.033786535,0.024134168,0.019835506,0.03207609,0.029075995,0.027847843,0.008794405,0.023099214,0.027497904,0.009108903,0.010514171,0.02330599,0.021879798,0.01605336,0.014903465,0.023069995,0.018965028,0.01719202,0.018288244,0.0060404893,0.0149820885,0.028137615,0.03332521,0.0066106752,0.0,0.0,0.0,0.0,0.0,0.0,0.0,1
27,0.045474034,0.01203932,0.04321737,0.017116902,0.017942486,0.0322792,0.007025524,0.014648406,0.019891256,0.04917098,0.022142593,0.0049386593,0.011724276,0.019730581,0.028324688,0.027596125,0.03288492,0.021602219,0.018311655,0.024651174,0.079556204,0.01492705,0.012821745,0.011313494,0.031560697,0.010410307,0.015062967,0.0058267717,0.015231694,0.021380352,0.038978536,0.04569615,0.038477067,0.0203932,0.014593531,0.030345988,0.022023516,0.021489408,0.007458769,0.018655244,0.024121184,0.0077871825,0.010531715,0.02261407,0.020497836,0.017856617,0.012036242,0.01922473,0.019589514,0.017459888,0.014043412,0.0056379093,0.012807787,0.022661172,0.02734166,0.0063551273,0.0,0.0,0.0,0.0,0.0,0.0,0.0,1
28,0.03829478,0.009317139,0.0419083,0.015538164,0.016404483,0.030116126,0.006276491,0.012114366,0.01693604,0.037396375,0.020416982,0.004126346,0.009563556,0.022634357,0.01880071,0.02348139,0.019800775,0.019201292,0.018326815,0.01746134,0.08043228,0.014178332,0.009894783,0.009564229,0.036377452,0.009153067,0.012607564,0.0050989753,0.007921594,0.016892124,0.030719317,0.040683404,0.028937683,0.022467062,0.015545162,0.02547699,0.02266767,0.0212887,0.0067962036,0.016617017,0.023609884,0.010428156,0.0100525,0.019288134,0.014485403,0.019174814,0.012215069,0.018815475,0.013551755,0.018811747,0.012403714,0.0046399273,0.010242178,0.018751577,0.025869913,0.0047441865,0.0,0.0,0.0,0.0,0.0,0.0,0.0,1
29,0.023342287,0.00789491,0.032167528,0.019492907,0.016889699,0.020982755,0.0059237275,0.0099031385,0.008802209,0.026087593,0.0143873915,0.00414517,0.009432162,0.015295116,0.02186586,0.019179143,0.019719532,0.017366607,0.014848038,0.01372008,0.094647706,0.011346575,0.004494197,0.008182514,0.027815223,0.007980283,0.010424753,0.0055102673,0.010395043,0.008871913,0.021801442,0.030724155,0.018903352,0.016559212,0.012072398,0.022894112,0.020628585,0.018338755,0.0064416453,0.012660501,0.016546547,0.0064723217,0.008562338,0.022110188,0.01557984,0.012003631,0.009380987,0.015715763,0.009502009,0.01275173,0.010122829,0.0036773563,0.0112669645,0.028844746,0.025020083,0.0040943963,0.0,0.0,0.0,0.0,0.0,0.0,0.0,1
